#  E (eV)   dosup(E)     dosdw(E)   Int dos(E) EFermi =   12.847 eV
   5.000  0.8477E-02  0.3851E-02  0.6243E-03
   5.100  0.1231E-01  0.9814E-02  0.2400E-02
   5.200  0.1502E-01  0.1260E-01  0.4873E-02
   5.300  0.2147E-01  0.1633E-01  0.8074E-02
   5.400  0.2989E-01  0.2306E-01  0.1258E-01
   5.500  0.2527E-01  0.3161E-01  0.1855E-01
   5.600  0.2799E-01  0.2504E-01  0.2425E-01
   5.700  0.3121E-01  0.2765E-01  0.2983E-01
   5.800  0.3492E-01  0.3069E-01  0.3605E-01
   5.900  0.3912E-01  0.3418E-01  0.4299E-01
   6.000  0.4707E-01  0.3811E-01  0.5098E-01
   6.100  0.4607E-01  0.4452E-01  0.5989E-01
   6.200  0.4912E-01  0.4346E-01  0.6899E-01
   6.300  0.5200E-01  0.4586E-01  0.7850E-01
   6.400  0.5270E-01  0.4794E-01  0.8846E-01
   6.500  0.5498E-01  0.4835E-01  0.9862E-01
   6.600  0.5891E-01  0.4945E-01  0.1092E+00
   6.700  0.6319E-01  0.5235E-01  0.1204E+00
   6.800  0.6784E-01  0.5546E-01  0.1323E+00
   6.900  0.7284E-01  0.5876E-01  0.1450E+00
   7.000  0.8155E-01  0.6227E-01  0.1590E+00
   7.100  0.8383E-01  0.6823E-01  0.1739E+00
   7.200  0.8821E-01  0.6965E-01  0.1893E+00
   7.300  0.9651E-01  0.7000E-01  0.2055E+00
   7.400  0.1041E+00  0.7159E-01  0.2226E+00
   7.500  0.1105E+00  0.7495E-01  0.2407E+00
   7.600  0.1182E+00  0.7856E-01  0.2597E+00
   7.700  0.1289E+00  0.8182E-01  0.2801E+00
   7.800  0.1414E+00  0.8472E-01  0.3019E+00
   7.900  0.1571E+00  0.8758E-01  0.3254E+00
   8.000  0.2083E+00  0.9174E-01  0.3518E+00
   8.100  0.2663E+00  0.9640E-01  0.3846E+00
   8.200  0.3399E+00  0.1023E+00  0.4249E+00
   8.300  0.4886E+00  0.1085E+00  0.4771E+00
   8.400  0.6089E+00  0.1160E+00  0.5437E+00
   8.500  0.7048E+00  0.1208E+00  0.6221E+00
   8.600  0.7389E+00  0.1249E+00  0.7051E+00
   8.700  0.9256E+00  0.1307E+00  0.7999E+00
   8.800  0.1192E+01  0.1414E+00  0.9291E+00
   8.900  0.1096E+01  0.1509E+00  0.1063E+01
   9.000  0.7740E+00  0.1590E+00  0.1171E+01
   9.100  0.6335E+00  0.1678E+00  0.1256E+01
   9.200  0.5686E+00  0.1810E+00  0.1334E+01
   9.300  0.4095E+00  0.1964E+00  0.1402E+01
   9.400  0.3227E+00  0.2154E+00  0.1457E+01
   9.500  0.3538E+00  0.3049E+00  0.1514E+01
   9.600  0.1234E+01  0.3434E+00  0.1598E+01
   9.700  0.2176E+01  0.3377E+00  0.1856E+01
   9.800  0.1283E+01  0.3616E+00  0.2074E+01
   9.900  0.1077E+01  0.3702E+00  0.2224E+01
  10.000  0.8298E+00  0.3630E+00  0.2356E+01
  10.100  0.8344E+00  0.3726E+00  0.2474E+01
  10.200  0.1148E+01  0.3871E+00  0.2609E+01
  10.300  0.1186E+01  0.4157E+00  0.2764E+01
  10.400  0.1816E+01  0.5386E+00  0.2969E+01
  10.500  0.1951E+01  0.6680E+00  0.3227E+01
  10.600  0.1028E+01  0.6711E+00  0.3449E+01
  10.700  0.6995E+00  0.6112E+00  0.3599E+01
  10.800  0.5668E+00  0.4793E+00  0.3715E+01
  10.900  0.4464E+00  0.3648E+00  0.3808E+01
  11.000  0.4348E+00  0.2375E+00  0.3881E+01
  11.100  0.5024E+00  0.2262E+00  0.3950E+01
  11.200  0.5690E+00  0.2146E+00  0.4026E+01
  11.300  0.6072E+00  0.2041E+00  0.4105E+01
  11.400  0.1093E+01  0.7199E+00  0.4231E+01
  11.500  0.1410E+01  0.1194E+01  0.4456E+01
  11.600  0.1930E+01  0.1363E+01  0.4748E+01
  11.700  0.2057E+01  0.1518E+01  0.5096E+01
  11.800  0.2617E+01  0.1414E+01  0.5485E+01
  11.900  0.2512E+01  0.1214E+01  0.5877E+01
  12.000  0.1773E+01  0.1184E+01  0.6230E+01
  12.100  0.1203E+01  0.1031E+01  0.6491E+01
  12.200  0.1051E+01  0.1168E+01  0.6715E+01
  12.300  0.9468E+00  0.1378E+01  0.6942E+01
  12.400  0.8515E+00  0.1408E+01  0.7175E+01
  12.500  0.8075E+00  0.1252E+01  0.7393E+01
  12.600  0.8656E+00  0.1063E+01  0.7592E+01
  12.700  0.8812E+00  0.9004E+00  0.7781E+01
  12.800  0.8749E+00  0.4739E+00  0.7939E+01
  12.900  0.5743E+00  0.2896E+00  0.8059E+01
  13.000  0.1983E+00  0.2215E+00  0.8118E+01
  13.100  0.1452E+00  0.1753E+00  0.8154E+01
  13.200  0.1422E+00  0.1672E+00  0.8187E+01
  13.300  0.1397E+00  0.1610E+00  0.8217E+01
  13.400  0.1383E+00  0.1700E+00  0.8247E+01
  13.500  0.1403E+00  0.2188E+00  0.8280E+01
  13.600  0.1525E+00  0.2729E+00  0.8319E+01
  13.700  0.1652E+00  0.3956E+00  0.8371E+01
  13.800  0.1700E+00  0.4264E+00  0.8427E+01
  13.900  0.1699E+00  0.4910E+00  0.8493E+01
  14.000  0.1651E+00  0.6332E+00  0.8566E+01
  14.100  0.1535E+00  0.8683E+00  0.8658E+01
  14.200  0.1513E+00  0.9504E+00  0.8761E+01
  14.300  0.1507E+00  0.1179E+01  0.8879E+01
  14.400  0.1515E+00  0.1329E+01  0.9025E+01
  14.500  0.1525E+00  0.1435E+01  0.9176E+01
  14.600  0.1528E+00  0.1542E+01  0.9346E+01
  14.700  0.1526E+00  0.1291E+01  0.9507E+01
  14.800  0.1520E+00  0.9904E+00  0.9633E+01
  14.900  0.1509E+00  0.1343E+01  0.9762E+01
  15.000  0.1522E+00  0.1831E+01  0.9928E+01
  15.100  0.1478E+00  0.4286E+01  0.1025E+02
  15.200  0.1476E+00  0.1648E+01  0.1048E+02
  15.300  0.1457E+00  0.1187E+01  0.1064E+02
  15.400  0.1424E+00  0.1005E+01  0.1076E+02
  15.500  0.1481E+00  0.4517E+00  0.1084E+02
  15.600  0.1462E+00  0.2535E+00  0.1089E+02
  15.700  0.1389E+00  0.2332E+00  0.1093E+02
  15.800  0.1339E+00  0.2544E+00  0.1097E+02
  15.900  0.1345E+00  0.2614E+00  0.1101E+02
  16.000  0.1371E+00  0.2557E+00  0.1105E+02
  16.100  0.1349E+00  0.2429E+00  0.1108E+02
  16.200  0.1291E+00  0.2395E+00  0.1112E+02
  16.300  0.1239E+00  0.2345E+00  0.1116E+02
  16.400  0.1193E+00  0.2286E+00  0.1119E+02
  16.500  0.1195E+00  0.2145E+00  0.1123E+02
  16.600  0.1146E+00  0.2065E+00  0.1126E+02
  16.700  0.1137E+00  0.2007E+00  0.1129E+02
  16.800  0.1129E+00  0.1948E+00  0.1132E+02
  16.900  0.1122E+00  0.1897E+00  0.1135E+02
  17.000  0.1115E+00  0.1863E+00  0.1138E+02
  17.100  0.1112E+00  0.1867E+00  0.1141E+02
  17.200  0.1111E+00  0.1849E+00  0.1144E+02
  17.300  0.1112E+00  0.1808E+00  0.1147E+02
  17.400  0.1043E+00  0.1751E+00  0.1150E+02
  17.500  0.1017E+00  0.1702E+00  0.1153E+02
  17.600  0.9798E-01  0.1833E+00  0.1156E+02
  17.700  0.9315E-01  0.1625E+00  0.1158E+02
  17.800  0.8437E-01  0.1518E+00  0.1161E+02
  17.900  0.7935E-01  0.1439E+00  0.1163E+02
  18.000  0.7523E-01  0.1401E+00  0.1166E+02
  18.100  0.7126E-01  0.1381E+00  0.1168E+02
  18.200  0.6033E-01  0.1365E+00  0.1170E+02
  18.300  0.5704E-01  0.1352E+00  0.1172E+02
  18.400  0.5504E-01  0.1341E+00  0.1174E+02
  18.500  0.5276E-01  0.1334E+00  0.1175E+02
  18.600  0.4990E-01  0.1329E+00  0.1177E+02
  18.700  0.4646E-01  0.1315E+00  0.1179E+02
  18.800  0.4245E-01  0.1209E+00  0.1181E+02
  18.900  0.3940E-01  0.1156E+00  0.1182E+02
  19.000  0.3740E-01  0.1092E+00  0.1184E+02
  19.100  0.3540E-01  0.1201E+00  0.1186E+02
  19.200  0.3341E-01  0.9248E-01  0.1187E+02
  19.300  0.3143E-01  0.8336E-01  0.1188E+02
  19.400  0.2945E-01  0.7516E-01  0.1189E+02
  19.500  0.2748E-01  0.6764E-01  0.1190E+02
  19.600  0.2551E-01  0.6326E-01  0.1191E+02
  19.700  0.2354E-01  0.5964E-01  0.1192E+02
  19.800  0.2112E-01  0.5546E-01  0.1193E+02
  19.900  0.1826E-01  0.5072E-01  0.1193E+02
  20.000  0.2540E-01  0.4654E-01  0.1194E+02
