# E (eV)  ldosup(E)  ldosdw(E) pdosup(E)  pdosdw(E)  pdosup(E)  pdosdw(E)  pdosup(E)  pdosdw(E)  pdosup(E)  pdosdw(E)  pdosup(E)  pdosdw(E) 
   5.000  0.175E-04  0.407E-05  0.289E-05  0.899E-06  0.389E-05  0.757E-06  0.389E-05  0.757E-06  0.289E-05  0.899E-06  0.389E-05  0.757E-06
   5.100  0.429E-04  0.160E-04  0.721E-05  0.258E-05  0.948E-05  0.361E-05  0.948E-05  0.361E-05  0.721E-05  0.258E-05  0.948E-05  0.361E-05
   5.200  0.828E-04  0.345E-04  0.153E-04  0.597E-05  0.174E-04  0.751E-05  0.174E-04  0.751E-05  0.153E-04  0.597E-05  0.174E-04  0.751E-05
   5.300  0.146E-03  0.649E-04  0.284E-04  0.121E-04  0.297E-04  0.135E-04  0.297E-04  0.135E-04  0.284E-04  0.121E-04  0.297E-04  0.135E-04
   5.400  0.225E-03  0.108E-03  0.439E-04  0.212E-04  0.458E-04  0.219E-04  0.458E-04  0.219E-04  0.439E-04  0.212E-04  0.458E-04  0.219E-04
   5.500  0.316E-03  0.160E-03  0.587E-04  0.309E-04  0.661E-04  0.326E-04  0.661E-04  0.326E-04  0.587E-04  0.309E-04  0.661E-04  0.326E-04
   5.600  0.461E-03  0.220E-03  0.849E-04  0.407E-04  0.971E-04  0.462E-04  0.971E-04  0.462E-04  0.849E-04  0.407E-04  0.971E-04  0.462E-04
   5.700  0.644E-03  0.312E-03  0.119E-03  0.571E-04  0.136E-03  0.658E-04  0.136E-03  0.658E-04  0.119E-03  0.571E-04  0.136E-03  0.658E-04
   5.800  0.868E-03  0.424E-03  0.161E-03  0.777E-04  0.182E-03  0.895E-04  0.182E-03  0.895E-04  0.161E-03  0.777E-04  0.182E-03  0.895E-04
   5.900  0.114E-02  0.559E-03  0.213E-03  0.103E-03  0.237E-03  0.118E-03  0.237E-03  0.118E-03  0.213E-03  0.103E-03  0.237E-03  0.118E-03
   6.000  0.143E-02  0.718E-03  0.274E-03  0.134E-03  0.295E-03  0.150E-03  0.295E-03  0.150E-03  0.274E-03  0.134E-03  0.295E-03  0.150E-03
   6.100  0.183E-02  0.885E-03  0.348E-03  0.169E-03  0.377E-03  0.182E-03  0.377E-03  0.182E-03  0.348E-03  0.169E-03  0.377E-03  0.182E-03
   6.200  0.230E-02  0.110E-02  0.436E-03  0.208E-03  0.476E-03  0.227E-03  0.476E-03  0.227E-03  0.436E-03  0.208E-03  0.476E-03  0.227E-03
   6.300  0.282E-02  0.134E-02  0.536E-03  0.254E-03  0.584E-03  0.279E-03  0.584E-03  0.279E-03  0.536E-03  0.254E-03  0.584E-03  0.279E-03
   6.400  0.347E-02  0.161E-02  0.662E-03  0.303E-03  0.714E-03  0.333E-03  0.714E-03  0.333E-03  0.662E-03  0.303E-03  0.714E-03  0.333E-03
   6.500  0.427E-02  0.192E-02  0.818E-03  0.363E-03  0.878E-03  0.397E-03  0.878E-03  0.397E-03  0.818E-03  0.363E-03  0.878E-03  0.397E-03
   6.600  0.524E-02  0.229E-02  0.100E-02  0.436E-03  0.108E-02  0.474E-03  0.108E-02  0.474E-03  0.100E-02  0.436E-03  0.108E-02  0.474E-03
   6.700  0.637E-02  0.273E-02  0.122E-02  0.519E-03  0.131E-02  0.565E-03  0.131E-02  0.565E-03  0.122E-02  0.519E-03  0.131E-02  0.565E-03
   6.800  0.770E-02  0.323E-02  0.147E-02  0.614E-03  0.158E-02  0.669E-03  0.158E-02  0.669E-03  0.147E-02  0.614E-03  0.158E-02  0.669E-03
   6.900  0.923E-02  0.380E-02  0.177E-02  0.721E-03  0.190E-02  0.786E-03  0.190E-02  0.786E-03  0.177E-02  0.721E-03  0.190E-02  0.786E-03
   7.000  0.109E-01  0.444E-02  0.211E-02  0.841E-03  0.223E-02  0.919E-03  0.223E-02  0.919E-03  0.211E-02  0.841E-03  0.223E-02  0.919E-03
   7.100  0.131E-01  0.507E-02  0.254E-02  0.963E-03  0.267E-02  0.105E-02  0.267E-02  0.105E-02  0.254E-02  0.963E-03  0.267E-02  0.105E-02
   7.200  0.159E-01  0.579E-02  0.308E-02  0.111E-02  0.325E-02  0.119E-02  0.325E-02  0.119E-02  0.308E-02  0.111E-02  0.325E-02  0.119E-02
   7.300  0.193E-01  0.663E-02  0.375E-02  0.127E-02  0.394E-02  0.136E-02  0.394E-02  0.136E-02  0.375E-02  0.127E-02  0.394E-02  0.136E-02
   7.400  0.233E-01  0.763E-02  0.454E-02  0.146E-02  0.475E-02  0.157E-02  0.475E-02  0.157E-02  0.454E-02  0.146E-02  0.475E-02  0.157E-02
   7.500  0.281E-01  0.876E-02  0.548E-02  0.168E-02  0.572E-02  0.180E-02  0.572E-02  0.180E-02  0.548E-02  0.168E-02  0.572E-02  0.180E-02
   7.600  0.342E-01  0.999E-02  0.666E-02  0.192E-02  0.694E-02  0.205E-02  0.694E-02  0.205E-02  0.666E-02  0.192E-02  0.694E-02  0.205E-02
   7.700  0.419E-01  0.114E-01  0.815E-02  0.219E-02  0.854E-02  0.233E-02  0.854E-02  0.233E-02  0.815E-02  0.219E-02  0.854E-02  0.233E-02
   7.800  0.517E-01  0.129E-01  0.101E-01  0.248E-02  0.105E-01  0.264E-02  0.105E-01  0.264E-02  0.101E-01  0.248E-02  0.105E-01  0.264E-02
   7.900  0.642E-01  0.146E-01  0.126E-01  0.281E-02  0.130E-01  0.299E-02  0.130E-01  0.299E-02  0.126E-01  0.281E-02  0.130E-01  0.299E-02
   8.000  0.820E-01  0.166E-01  0.161E-01  0.319E-02  0.166E-01  0.340E-02  0.166E-01  0.340E-02  0.161E-01  0.319E-02  0.166E-01  0.340E-02
   8.100  0.129E+00  0.188E-01  0.246E-01  0.361E-02  0.265E-01  0.386E-02  0.265E-01  0.386E-02  0.246E-01  0.361E-02  0.265E-01  0.386E-02
   8.200  0.323E+00  0.213E-01  0.610E-01  0.409E-02  0.670E-01  0.438E-02  0.670E-01  0.438E-02  0.610E-01  0.409E-02  0.670E-01  0.438E-02
   8.300  0.407E+00  0.241E-01  0.924E-01  0.463E-02  0.739E-01  0.495E-02  0.739E-01  0.495E-02  0.924E-01  0.463E-02  0.739E-01  0.495E-02
   8.400  0.509E+00  0.273E-01  0.130E+00  0.526E-02  0.829E-01  0.561E-02  0.829E-01  0.561E-02  0.130E+00  0.526E-02  0.829E-01  0.561E-02
   8.500  0.562E+00  0.309E-01  0.158E+00  0.596E-02  0.820E-01  0.634E-02  0.820E-01  0.634E-02  0.158E+00  0.596E-02  0.820E-01  0.634E-02
   8.600  0.641E+00  0.350E-01  0.192E+00  0.675E-02  0.855E-01  0.718E-02  0.855E-01  0.718E-02  0.192E+00  0.675E-02  0.855E-01  0.718E-02
   8.700  0.756E+00  0.403E-01  0.239E+00  0.771E-02  0.924E-01  0.829E-02  0.924E-01  0.829E-02  0.239E+00  0.771E-02  0.924E-01  0.829E-02
   8.800  0.107E+01  0.464E-01  0.368E+00  0.884E-02  0.113E+00  0.957E-02  0.113E+00  0.957E-02  0.368E+00  0.884E-02  0.113E+00  0.957E-02
   8.900  0.103E+01  0.530E-01  0.352E+00  0.101E-01  0.109E+00  0.109E-01  0.109E+00  0.109E-01  0.352E+00  0.101E-01  0.109E+00  0.109E-01
   9.000  0.732E+00  0.607E-01  0.215E+00  0.115E-01  0.101E+00  0.126E-01  0.101E+00  0.126E-01  0.215E+00  0.115E-01  0.101E+00  0.126E-01
   9.100  0.636E+00  0.702E-01  0.166E+00  0.133E-01  0.101E+00  0.145E-01  0.101E+00  0.145E-01  0.166E+00  0.133E-01  0.101E+00  0.145E-01
   9.200  0.551E+00  0.822E-01  0.129E+00  0.156E-01  0.973E-01  0.170E-01  0.973E-01  0.170E-01  0.129E+00  0.156E-01  0.973E-01  0.170E-01
   9.300  0.459E+00  0.968E-01  0.110E+00  0.183E-01  0.796E-01  0.201E-01  0.796E-01  0.201E-01  0.110E+00  0.183E-01  0.796E-01  0.201E-01
   9.400  0.310E+00  0.114E+00  0.102E+00  0.215E-01  0.355E-01  0.237E-01  0.355E-01  0.237E-01  0.102E+00  0.215E-01  0.355E-01  0.237E-01
   9.500  0.311E+00  0.147E+00  0.111E+00  0.270E-01  0.294E-01  0.309E-01  0.294E-01  0.309E-01  0.111E+00  0.270E-01  0.294E-01  0.309E-01
   9.600  0.171E+01  0.231E+00  0.171E+00  0.406E-01  0.455E+00  0.499E-01  0.455E+00  0.499E-01  0.171E+00  0.406E-01  0.455E+00  0.499E-01
   9.700  0.205E+01  0.240E+00  0.261E+00  0.429E-01  0.510E+00  0.514E-01  0.510E+00  0.514E-01  0.261E+00  0.429E-01  0.510E+00  0.514E-01
   9.800  0.127E+01  0.254E+00  0.172E+00  0.461E-01  0.308E+00  0.539E-01  0.308E+00  0.539E-01  0.172E+00  0.461E-01  0.308E+00  0.539E-01
   9.900  0.104E+01  0.256E+00  0.149E+00  0.475E-01  0.248E+00  0.535E-01  0.248E+00  0.535E-01  0.149E+00  0.475E-01  0.248E+00  0.535E-01
  10.000  0.913E+00  0.259E+00  0.933E-01  0.503E-01  0.242E+00  0.528E-01  0.242E+00  0.528E-01  0.933E-01  0.503E-01  0.242E+00  0.528E-01
  10.100  0.873E+00  0.276E+00  0.993E-01  0.560E-01  0.225E+00  0.548E-01  0.225E+00  0.548E-01  0.993E-01  0.560E-01  0.225E+00  0.548E-01
  10.200  0.104E+01  0.293E+00  0.123E+00  0.617E-01  0.266E+00  0.566E-01  0.266E+00  0.566E-01  0.123E+00  0.617E-01  0.266E+00  0.566E-01
  10.300  0.123E+01  0.309E+00  0.140E+00  0.671E-01  0.318E+00  0.582E-01  0.318E+00  0.582E-01  0.140E+00  0.671E-01  0.318E+00  0.582E-01
  10.400  0.179E+01  0.418E+00  0.227E+00  0.118E+00  0.446E+00  0.606E-01  0.446E+00  0.606E-01  0.227E+00  0.118E+00  0.446E+00  0.606E-01
  10.500  0.168E+01  0.555E+00  0.189E+00  0.182E+00  0.433E+00  0.635E-01  0.433E+00  0.635E-01  0.189E+00  0.182E+00  0.433E+00  0.635E-01
  10.600  0.105E+01  0.600E+00  0.112E+00  0.203E+00  0.276E+00  0.646E-01  0.276E+00  0.646E-01  0.112E+00  0.203E+00  0.276E+00  0.646E-01
  10.700  0.582E+00  0.592E+00  0.810E-01  0.200E+00  0.140E+00  0.643E-01  0.140E+00  0.643E-01  0.810E-01  0.200E+00  0.140E+00  0.643E-01
  10.800  0.463E+00  0.442E+00  0.670E-01  0.132E+00  0.110E+00  0.595E-01  0.110E+00  0.595E-01  0.670E-01  0.132E+00  0.110E+00  0.595E-01
  10.900  0.410E+00  0.443E+00  0.579E-01  0.116E+00  0.981E-01  0.702E-01  0.981E-01  0.702E-01  0.579E-01  0.116E+00  0.981E-01  0.702E-01
  11.000  0.404E+00  0.260E+00  0.585E-01  0.810E-01  0.957E-01  0.328E-01  0.957E-01  0.328E-01  0.585E-01  0.810E-01  0.957E-01  0.328E-01
  11.100  0.471E+00  0.224E+00  0.738E-01  0.796E-01  0.108E+00  0.217E-01  0.108E+00  0.217E-01  0.738E-01  0.796E-01  0.108E+00  0.217E-01
  11.200  0.521E+00  0.218E+00  0.799E-01  0.815E-01  0.120E+00  0.182E-01  0.120E+00  0.182E-01  0.799E-01  0.815E-01  0.120E+00  0.182E-01
  11.300  0.632E+00  0.191E+00  0.105E+00  0.866E-01  0.140E+00  0.604E-02  0.140E+00  0.604E-02  0.105E+00  0.866E-01  0.140E+00  0.604E-02
  11.400  0.999E+00  0.735E+00  0.189E+00  0.111E+00  0.207E+00  0.171E+00  0.207E+00  0.171E+00  0.189E+00  0.111E+00  0.207E+00  0.171E+00
  11.500  0.143E+01  0.125E+01  0.332E+00  0.183E+00  0.256E+00  0.293E+00  0.256E+00  0.293E+00  0.332E+00  0.183E+00  0.256E+00  0.293E+00
  11.600  0.206E+01  0.131E+01  0.556E+00  0.159E+00  0.315E+00  0.331E+00  0.315E+00  0.331E+00  0.556E+00  0.159E+00  0.315E+00  0.331E+00
  11.700  0.192E+01  0.135E+01  0.503E+00  0.149E+00  0.306E+00  0.351E+00  0.306E+00  0.351E+00  0.503E+00  0.149E+00  0.306E+00  0.351E+00
  11.800  0.264E+01  0.130E+01  0.869E+00  0.160E+00  0.300E+00  0.326E+00  0.300E+00  0.326E+00  0.869E+00  0.160E+00  0.300E+00  0.326E+00
  11.900  0.257E+01  0.120E+01  0.903E+00  0.135E+00  0.256E+00  0.310E+00  0.256E+00  0.310E+00  0.903E+00  0.135E+00  0.256E+00  0.310E+00
  12.000  0.169E+01  0.104E+01  0.523E+00  0.955E-01  0.216E+00  0.282E+00  0.216E+00  0.282E+00  0.523E+00  0.955E-01  0.216E+00  0.282E+00
  12.100  0.108E+01  0.964E+00  0.256E+00  0.848E-01  0.190E+00  0.265E+00  0.190E+00  0.265E+00  0.256E+00  0.848E-01  0.190E+00  0.265E+00
  12.200  0.955E+00  0.102E+01  0.183E+00  0.876E-01  0.197E+00  0.280E+00  0.197E+00  0.280E+00  0.183E+00  0.876E-01  0.197E+00  0.280E+00
  12.300  0.857E+00  0.120E+01  0.131E+00  0.119E+00  0.198E+00  0.319E+00  0.198E+00  0.319E+00  0.131E+00  0.119E+00  0.198E+00  0.319E+00
  12.400  0.775E+00  0.129E+01  0.975E-01  0.132E+00  0.193E+00  0.341E+00  0.193E+00  0.341E+00  0.975E-01  0.132E+00  0.193E+00  0.341E+00
  12.500  0.741E+00  0.101E+01  0.685E-01  0.841E-01  0.201E+00  0.282E+00  0.201E+00  0.282E+00  0.685E-01  0.841E-01  0.201E+00  0.282E+00
  12.600  0.783E+00  0.854E+00  0.522E-01  0.517E-01  0.226E+00  0.250E+00  0.226E+00  0.250E+00  0.522E-01  0.517E-01  0.226E+00  0.250E+00
  12.700  0.805E+00  0.812E+00  0.386E-01  0.343E-01  0.243E+00  0.248E+00  0.243E+00  0.248E+00  0.386E-01  0.343E-01  0.243E+00  0.248E+00
  12.800  0.783E+00  0.603E+00  0.281E-01  0.182E-01  0.242E+00  0.189E+00  0.242E+00  0.189E+00  0.281E-01  0.182E-01  0.242E+00  0.189E+00
  12.900  0.527E+00  0.239E+00  0.200E-01  0.114E-01  0.162E+00  0.721E-01  0.162E+00  0.721E-01  0.200E-01  0.114E-01  0.162E+00  0.721E-01
  13.000  0.219E+00  0.193E+00  0.145E-01  0.817E-02  0.633E-01  0.590E-01  0.633E-01  0.590E-01  0.145E-01  0.817E-02  0.633E-01  0.590E-01
  13.100  0.908E-01  0.172E+00  0.122E-01  0.580E-02  0.221E-01  0.535E-01  0.221E-01  0.535E-01  0.122E-01  0.580E-02  0.221E-01  0.535E-01
  13.200  0.866E-01  0.186E+00  0.112E-01  0.588E-02  0.214E-01  0.580E-01  0.214E-01  0.580E-01  0.112E-01  0.588E-02  0.214E-01  0.580E-01
  13.300  0.822E-01  0.173E+00  0.103E-01  0.629E-02  0.206E-01  0.534E-01  0.206E-01  0.534E-01  0.103E-01  0.629E-02  0.206E-01  0.534E-01
  13.400  0.771E-01  0.190E+00  0.927E-02  0.850E-02  0.195E-01  0.575E-01  0.195E-01  0.575E-01  0.927E-02  0.850E-02  0.195E-01  0.575E-01
  13.500  0.738E-01  0.241E+00  0.892E-02  0.138E-01  0.187E-01  0.710E-01  0.187E-01  0.710E-01  0.892E-02  0.138E-01  0.187E-01  0.710E-01
  13.600  0.725E-01  0.286E+00  0.896E-02  0.192E-01  0.182E-01  0.827E-01  0.182E-01  0.827E-01  0.896E-02  0.192E-01  0.182E-01  0.827E-01
  13.700  0.693E-01  0.387E+00  0.843E-02  0.301E-01  0.175E-01  0.109E+00  0.175E-01  0.109E+00  0.843E-02  0.301E-01  0.175E-01  0.109E+00
  13.800  0.659E-01  0.428E+00  0.807E-02  0.593E-01  0.166E-01  0.103E+00  0.166E-01  0.103E+00  0.807E-02  0.593E-01  0.166E-01  0.103E+00
  13.900  0.625E-01  0.534E+00  0.768E-02  0.848E-01  0.157E-01  0.121E+00  0.157E-01  0.121E+00  0.768E-02  0.848E-01  0.157E-01  0.121E+00
  14.000  0.588E-01  0.706E+00  0.726E-02  0.124E+00  0.148E-01  0.153E+00  0.148E-01  0.153E+00  0.726E-02  0.124E+00  0.148E-01  0.153E+00
  14.100  0.534E-01  0.833E+00  0.679E-02  0.159E+00  0.133E-01  0.172E+00  0.133E-01  0.172E+00  0.679E-02  0.159E+00  0.133E-01  0.172E+00
  14.200  0.499E-01  0.890E+00  0.637E-02  0.188E+00  0.124E-01  0.171E+00  0.124E-01  0.171E+00  0.637E-02  0.188E+00  0.124E-01  0.171E+00
  14.300  0.471E-01  0.105E+01  0.595E-02  0.230E+00  0.117E-01  0.198E+00  0.117E-01  0.198E+00  0.595E-02  0.230E+00  0.117E-01  0.198E+00
  14.400  0.445E-01  0.126E+01  0.555E-02  0.312E+00  0.111E-01  0.211E+00  0.111E-01  0.211E+00  0.555E-02  0.312E+00  0.111E-01  0.211E+00
  14.500  0.424E-01  0.141E+01  0.523E-02  0.393E+00  0.107E-01  0.209E+00  0.107E-01  0.209E+00  0.523E-02  0.393E+00  0.107E-01  0.209E+00
  14.600  0.404E-01  0.158E+01  0.495E-02  0.478E+00  0.102E-01  0.207E+00  0.102E-01  0.207E+00  0.495E-02  0.478E+00  0.102E-01  0.207E+00
  14.700  0.383E-01  0.130E+01  0.468E-02  0.388E+00  0.964E-02  0.175E+00  0.964E-02  0.175E+00  0.468E-02  0.388E+00  0.964E-02  0.175E+00
  14.800  0.362E-01  0.972E+00  0.441E-02  0.303E+00  0.912E-02  0.122E+00  0.912E-02  0.122E+00  0.441E-02  0.303E+00  0.912E-02  0.122E+00
  14.900  0.341E-01  0.134E+01  0.414E-02  0.481E+00  0.860E-02  0.125E+00  0.860E-02  0.125E+00  0.414E-02  0.481E+00  0.860E-02  0.125E+00
  15.000  0.328E-01  0.195E+01  0.409E-02  0.666E+00  0.821E-02  0.207E+00  0.821E-02  0.207E+00  0.409E-02  0.666E+00  0.821E-02  0.207E+00
  15.100  0.300E-01  0.454E+01  0.363E-02  0.177E+01  0.759E-02  0.334E+00  0.759E-02  0.334E+00  0.363E-02  0.177E+01  0.759E-02  0.334E+00
  15.200  0.285E-01  0.144E+01  0.345E-02  0.319E+00  0.720E-02  0.268E+00  0.720E-02  0.268E+00  0.345E-02  0.319E+00  0.720E-02  0.268E+00
  15.300  0.271E-01  0.110E+01  0.327E-02  0.190E+00  0.686E-02  0.241E+00  0.686E-02  0.241E+00  0.327E-02  0.190E+00  0.686E-02  0.241E+00
  15.400  0.259E-01  0.984E+00  0.308E-02  0.977E-01  0.659E-02  0.263E+00  0.659E-02  0.263E+00  0.308E-02  0.977E-01  0.659E-02  0.263E+00
  15.500  0.240E-01  0.471E+00  0.289E-02  0.699E-01  0.609E-02  0.110E+00  0.609E-02  0.110E+00  0.289E-02  0.699E-01  0.609E-02  0.110E+00
  15.600  0.224E-01  0.249E+00  0.271E-02  0.537E-01  0.565E-02  0.471E-01  0.565E-02  0.471E-01  0.271E-02  0.537E-01  0.565E-02  0.471E-01
  15.700  0.208E-01  0.200E+00  0.253E-02  0.453E-01  0.526E-02  0.366E-01  0.526E-02  0.366E-01  0.253E-02  0.453E-01  0.526E-02  0.366E-01
  15.800  0.193E-01  0.184E+00  0.236E-02  0.361E-01  0.486E-02  0.372E-01  0.486E-02  0.372E-01  0.236E-02  0.361E-01  0.486E-02  0.372E-01
  15.900  0.179E-01  0.177E+00  0.218E-02  0.333E-01  0.452E-02  0.368E-01  0.452E-02  0.368E-01  0.218E-02  0.333E-01  0.452E-02  0.368E-01
  16.000  0.167E-01  0.166E+00  0.202E-02  0.307E-01  0.421E-02  0.348E-01  0.421E-02  0.348E-01  0.202E-02  0.307E-01  0.421E-02  0.348E-01
  16.100  0.154E-01  0.153E+00  0.187E-02  0.283E-01  0.391E-02  0.320E-01  0.391E-02  0.320E-01  0.187E-02  0.283E-01  0.391E-02  0.320E-01
  16.200  0.144E-01  0.139E+00  0.172E-02  0.262E-01  0.365E-02  0.289E-01  0.365E-02  0.289E-01  0.172E-02  0.262E-01  0.365E-02  0.289E-01
  16.300  0.135E-01  0.128E+00  0.160E-02  0.242E-01  0.342E-02  0.266E-01  0.342E-02  0.266E-01  0.160E-02  0.242E-01  0.342E-02  0.266E-01
  16.400  0.126E-01  0.117E+00  0.148E-02  0.218E-01  0.320E-02  0.244E-01  0.320E-02  0.244E-01  0.148E-02  0.218E-01  0.320E-02  0.244E-01
  16.500  0.121E-01  0.109E+00  0.150E-02  0.204E-01  0.302E-02  0.227E-01  0.302E-02  0.227E-01  0.150E-02  0.204E-01  0.302E-02  0.227E-01
  16.600  0.109E-01  0.981E-01  0.128E-02  0.180E-01  0.277E-02  0.207E-01  0.277E-02  0.207E-01  0.128E-02  0.180E-01  0.277E-02  0.207E-01
  16.700  0.101E-01  0.906E-01  0.119E-02  0.164E-01  0.258E-02  0.193E-01  0.258E-02  0.193E-01  0.119E-02  0.164E-01  0.258E-02  0.193E-01
  16.800  0.941E-02  0.842E-01  0.111E-02  0.150E-01  0.240E-02  0.181E-01  0.240E-02  0.181E-01  0.111E-02  0.150E-01  0.240E-02  0.181E-01
  16.900  0.873E-02  0.789E-01  0.103E-02  0.139E-01  0.222E-02  0.170E-01  0.222E-02  0.170E-01  0.103E-02  0.139E-01  0.222E-02  0.170E-01
  17.000  0.808E-02  0.739E-01  0.953E-03  0.130E-01  0.206E-02  0.160E-01  0.206E-02  0.160E-01  0.953E-03  0.130E-01  0.206E-02  0.160E-01
  17.100  0.746E-02  0.691E-01  0.879E-03  0.121E-01  0.190E-02  0.149E-01  0.190E-02  0.149E-01  0.879E-03  0.121E-01  0.190E-02  0.149E-01
  17.200  0.687E-02  0.645E-01  0.808E-03  0.113E-01  0.175E-02  0.140E-01  0.175E-02  0.140E-01  0.808E-03  0.113E-01  0.175E-02  0.140E-01
  17.300  0.631E-02  0.601E-01  0.741E-03  0.105E-01  0.161E-02  0.130E-01  0.161E-02  0.130E-01  0.741E-03  0.105E-01  0.161E-02  0.130E-01
  17.400  0.589E-02  0.557E-01  0.692E-03  0.965E-02  0.150E-02  0.121E-01  0.150E-02  0.121E-01  0.692E-03  0.965E-02  0.150E-02  0.121E-01
  17.500  0.540E-02  0.510E-01  0.630E-03  0.888E-02  0.138E-02  0.111E-01  0.138E-02  0.111E-01  0.630E-03  0.888E-02  0.138E-02  0.111E-01
  17.600  0.497E-02  0.466E-01  0.572E-03  0.814E-02  0.128E-02  0.101E-01  0.128E-02  0.101E-01  0.572E-03  0.814E-02  0.128E-02  0.101E-01
  17.700  0.459E-02  0.429E-01  0.518E-03  0.743E-02  0.119E-02  0.933E-02  0.119E-02  0.933E-02  0.518E-03  0.743E-02  0.119E-02  0.933E-02
  17.800  0.415E-02  0.413E-01  0.466E-03  0.745E-02  0.107E-02  0.881E-02  0.107E-02  0.881E-02  0.466E-03  0.745E-02  0.107E-02  0.881E-02
  17.900  0.372E-02  0.369E-01  0.419E-03  0.630E-02  0.960E-03  0.810E-02  0.960E-03  0.810E-02  0.419E-03  0.630E-02  0.960E-03  0.810E-02
  18.000  0.333E-02  0.343E-01  0.376E-03  0.587E-02  0.859E-03  0.753E-02  0.859E-03  0.753E-02  0.376E-03  0.587E-02  0.859E-03  0.753E-02
  18.100  0.303E-02  0.319E-01  0.351E-03  0.546E-02  0.776E-03  0.698E-02  0.776E-03  0.698E-02  0.351E-03  0.546E-02  0.776E-03  0.698E-02
  18.200  0.293E-02  0.296E-01  0.348E-03  0.507E-02  0.744E-03  0.647E-02  0.744E-03  0.647E-02  0.348E-03  0.507E-02  0.744E-03  0.647E-02
  18.300  0.227E-02  0.274E-01  0.280E-03  0.470E-02  0.568E-03  0.600E-02  0.568E-03  0.600E-02  0.280E-03  0.470E-02  0.568E-03  0.600E-02
  18.400  0.177E-02  0.253E-01  0.232E-03  0.434E-02  0.436E-03  0.555E-02  0.436E-03  0.555E-02  0.232E-03  0.434E-02  0.436E-03  0.555E-02
  18.500  0.159E-02  0.234E-01  0.210E-03  0.401E-02  0.391E-03  0.514E-02  0.391E-03  0.514E-02  0.210E-03  0.401E-02  0.391E-03  0.514E-02
  18.600  0.143E-02  0.216E-01  0.189E-03  0.369E-02  0.350E-03  0.474E-02  0.350E-03  0.474E-02  0.189E-03  0.369E-02  0.350E-03  0.474E-02
  18.700  0.127E-02  0.199E-01  0.169E-03  0.338E-02  0.311E-03  0.437E-02  0.311E-03  0.437E-02  0.169E-03  0.338E-02  0.311E-03  0.437E-02
  18.800  0.112E-02  0.186E-01  0.150E-03  0.317E-02  0.274E-03  0.409E-02  0.274E-03  0.409E-02  0.150E-03  0.317E-02  0.274E-03  0.409E-02
  18.900  0.984E-03  0.171E-01  0.133E-03  0.289E-02  0.239E-03  0.377E-02  0.239E-03  0.377E-02  0.133E-03  0.289E-02  0.239E-03  0.377E-02
  19.000  0.850E-03  0.157E-01  0.115E-03  0.263E-02  0.206E-03  0.349E-02  0.206E-03  0.349E-02  0.115E-03  0.263E-02  0.206E-03  0.349E-02
  19.100  0.730E-03  0.153E-01  0.100E-03  0.242E-02  0.177E-03  0.350E-02  0.177E-03  0.350E-02  0.100E-03  0.242E-02  0.177E-03  0.350E-02
  19.200  0.623E-03  0.132E-01  0.861E-04  0.230E-02  0.150E-03  0.287E-02  0.150E-03  0.287E-02  0.861E-04  0.230E-02  0.150E-03  0.287E-02
  19.300  0.527E-03  0.118E-01  0.737E-04  0.206E-02  0.127E-03  0.256E-02  0.127E-03  0.256E-02  0.737E-04  0.206E-02  0.127E-03  0.256E-02
  19.400  0.442E-03  0.106E-01  0.627E-04  0.185E-02  0.106E-03  0.229E-02  0.106E-03  0.229E-02  0.627E-04  0.185E-02  0.106E-03  0.229E-02
  19.500  0.367E-03  0.104E-01  0.529E-04  0.181E-02  0.871E-04  0.225E-02  0.871E-04  0.225E-02  0.529E-04  0.181E-02  0.871E-04  0.225E-02
  19.600  0.302E-03  0.691E-02  0.443E-04  0.134E-02  0.711E-04  0.141E-02  0.711E-04  0.141E-02  0.443E-04  0.134E-02  0.711E-04  0.141E-02
  19.700  0.245E-03  0.620E-02  0.367E-04  0.121E-02  0.571E-04  0.126E-02  0.571E-04  0.126E-02  0.367E-04  0.121E-02  0.571E-04  0.126E-02
  19.800  0.212E-03  0.554E-02  0.302E-04  0.109E-02  0.504E-04  0.112E-02  0.504E-04  0.112E-02  0.302E-04  0.109E-02  0.504E-04  0.112E-02
  19.900  0.129E-03  0.493E-02  0.247E-04  0.973E-03  0.266E-04  0.994E-03  0.266E-04  0.994E-03  0.247E-04  0.973E-03  0.266E-04  0.994E-03
  20.000  0.398E-03  0.434E-02  0.431E-04  0.862E-03  0.104E-03  0.874E-03  0.104E-03  0.874E-03  0.431E-04  0.862E-03  0.104E-03  0.874E-03
  20.100  0.143E-02  0.376E-02  0.943E-04  0.748E-03  0.413E-03  0.755E-03  0.413E-03  0.755E-03  0.943E-04  0.748E-03  0.413E-03  0.755E-03
