#  E (eV)   dos(E)     Int dos(E) EFermi =   0.920 eV
 -18.668  0.0000E+00  0.0000E+00
 -18.658  0.3104E-01  0.3104E-03
 -18.648  0.6209E-01  0.9313E-03
 -18.638  0.9313E-01  0.1863E-02
 -18.628  0.1242E+00  0.3104E-02
 -18.618  0.1552E+00  0.4657E-02
 -18.608  0.1863E+00  0.6519E-02
 -18.598  0.2173E+00  0.8692E-02
 -18.588  0.2484E+00  0.1118E-01
 -18.578  0.2794E+00  0.1397E-01
 -18.568  0.3104E+00  0.1707E-01
 -18.558  0.3415E+00  0.2049E-01
 -18.548  0.3725E+00  0.2421E-01
 -18.538  0.4036E+00  0.2825E-01
 -18.528  0.4346E+00  0.3260E-01
 -18.518  0.4657E+00  0.3725E-01
 -18.508  0.4967E+00  0.4222E-01
 -18.498  0.2560E+00  0.4478E-01
 -18.488  0.2586E+00  0.4737E-01
 -18.478  0.2612E+00  0.4998E-01
 -18.468  0.2638E+00  0.5262E-01
 -18.458  0.2664E+00  0.5528E-01
 -18.448  0.2690E+00  0.5797E-01
 -18.438  0.2716E+00  0.6069E-01
 -18.428  0.2742E+00  0.6343E-01
 -18.418  0.2768E+00  0.6620E-01
 -18.408  0.2794E+00  0.6899E-01
 -18.398  0.2820E+00  0.7181E-01
 -18.388  0.2846E+00  0.7465E-01
 -18.378  0.2872E+00  0.7753E-01
 -18.368  0.2898E+00  0.8042E-01
 -18.358  0.2924E+00  0.8335E-01
 -18.348  0.2950E+00  0.8630E-01
 -18.338  0.2976E+00  0.8927E-01
 -18.328  0.3002E+00  0.9227E-01
 -18.318  0.3027E+00  0.9530E-01
 -18.308  0.3053E+00  0.9835E-01
 -18.298  0.3079E+00  0.1014E+00
 -18.288  0.3105E+00  0.1045E+00
 -18.278  0.3131E+00  0.1077E+00
 -18.268  0.3157E+00  0.1108E+00
 -18.258  0.3183E+00  0.1140E+00
 -18.248  0.3209E+00  0.1172E+00
 -18.238  0.3235E+00  0.1205E+00
 -18.228  0.3261E+00  0.1237E+00
 -18.218  0.3287E+00  0.1270E+00
 -18.208  0.3313E+00  0.1303E+00
 -18.198  0.3339E+00  0.1337E+00
 -18.188  0.3365E+00  0.1370E+00
 -18.178  0.3391E+00  0.1404E+00
 -18.168  0.3368E+00  0.1438E+00
 -18.158  0.3336E+00  0.1471E+00
 -18.148  0.3304E+00  0.1504E+00
 -18.138  0.3273E+00  0.1537E+00
 -18.128  0.3241E+00  0.1569E+00
 -18.118  0.3209E+00  0.1601E+00
 -18.108  0.3178E+00  0.1633E+00
 -18.098  0.3146E+00  0.1665E+00
 -18.088  0.3115E+00  0.1696E+00
 -18.078  0.3083E+00  0.1727E+00
 -18.068  0.3051E+00  0.1757E+00
 -18.058  0.3020E+00  0.1787E+00
 -18.048  0.2988E+00  0.1817E+00
 -18.038  0.2956E+00  0.1847E+00
 -18.028  0.2925E+00  0.1876E+00
 -18.018  0.2893E+00  0.1905E+00
 -18.008  0.2883E+00  0.1934E+00
 -17.998  0.2892E+00  0.1963E+00
 -17.988  0.2901E+00  0.1992E+00
 -17.978  0.2910E+00  0.2021E+00
 -17.968  0.2920E+00  0.2050E+00
 -17.958  0.2929E+00  0.2079E+00
 -17.948  0.2938E+00  0.2109E+00
 -17.938  0.2947E+00  0.2138E+00
 -17.928  0.2957E+00  0.2168E+00
 -17.918  0.2966E+00  0.2197E+00
 -17.908  0.2975E+00  0.2227E+00
 -17.898  0.2984E+00  0.2257E+00
 -17.888  0.2994E+00  0.2287E+00
 -17.878  0.3003E+00  0.2317E+00
 -17.868  0.3012E+00  0.2347E+00
 -17.858  0.3021E+00  0.2377E+00
 -17.848  0.3030E+00  0.2408E+00
 -17.838  0.3040E+00  0.2438E+00
 -17.828  0.3049E+00  0.2468E+00
 -17.818  0.3058E+00  0.2499E+00
 -17.808  0.3067E+00  0.2530E+00
 -17.798  0.3077E+00  0.2561E+00
 -17.788  0.3086E+00  0.2591E+00
 -17.778  0.3095E+00  0.2622E+00
 -17.768  0.3104E+00  0.2653E+00
 -17.758  0.3114E+00  0.2685E+00
 -17.748  0.3123E+00  0.2716E+00
 -17.738  0.3132E+00  0.2747E+00
 -17.728  0.3141E+00  0.2778E+00
 -17.718  0.3151E+00  0.2810E+00
 -17.708  0.3160E+00  0.2842E+00
 -17.698  0.3169E+00  0.2873E+00
 -17.688  0.3178E+00  0.2905E+00
 -17.678  0.3187E+00  0.2937E+00
 -17.668  0.3197E+00  0.2969E+00
 -17.658  0.3206E+00  0.3001E+00
 -17.648  0.3215E+00  0.3033E+00
 -17.638  0.3224E+00  0.3065E+00
 -17.628  0.3234E+00  0.3098E+00
 -17.618  0.3243E+00  0.3130E+00
 -17.608  0.3252E+00  0.3163E+00
 -17.598  0.3261E+00  0.3195E+00
 -17.588  0.3271E+00  0.3228E+00
 -17.578  0.3280E+00  0.3261E+00
 -17.568  0.3289E+00  0.3294E+00
 -17.558  0.3298E+00  0.3327E+00
 -17.548  0.3307E+00  0.3360E+00
 -17.538  0.3317E+00  0.3393E+00
 -17.528  0.3326E+00  0.3426E+00
 -17.518  0.3082E+00  0.3457E+00
 -17.508  0.3081E+00  0.3488E+00
 -17.498  0.3079E+00  0.3519E+00
 -17.488  0.3078E+00  0.3549E+00
 -17.478  0.3076E+00  0.3580E+00
 -17.468  0.3075E+00  0.3611E+00
 -17.458  0.3073E+00  0.3642E+00
 -17.448  0.3072E+00  0.3672E+00
 -17.438  0.3070E+00  0.3703E+00
 -17.428  0.3069E+00  0.3734E+00
 -17.418  0.3067E+00  0.3764E+00
 -17.408  0.3066E+00  0.3795E+00
 -17.398  0.3064E+00  0.3826E+00
 -17.388  0.3063E+00  0.3856E+00
 -17.378  0.3061E+00  0.3887E+00
 -17.368  0.3060E+00  0.3917E+00
 -17.358  0.3058E+00  0.3948E+00
 -17.348  0.3057E+00  0.3979E+00
 -17.338  0.3055E+00  0.4009E+00
 -17.328  0.3054E+00  0.4040E+00
 -17.318  0.3052E+00  0.4070E+00
 -17.308  0.3051E+00  0.4101E+00
 -17.298  0.3049E+00  0.4131E+00
 -17.288  0.3048E+00  0.4162E+00
 -17.278  0.3046E+00  0.4192E+00
 -17.268  0.3045E+00  0.4223E+00
 -17.258  0.3043E+00  0.4253E+00
 -17.248  0.3042E+00  0.4283E+00
 -17.238  0.3040E+00  0.4314E+00
 -17.228  0.3039E+00  0.4344E+00
 -17.218  0.3037E+00  0.4375E+00
 -17.208  0.3036E+00  0.4405E+00
 -17.198  0.3036E+00  0.4435E+00
 -17.188  0.3040E+00  0.4466E+00
 -17.178  0.3045E+00  0.4496E+00
 -17.168  0.3050E+00  0.4527E+00
 -17.158  0.3055E+00  0.4557E+00
 -17.148  0.3060E+00  0.4588E+00
 -17.138  0.3065E+00  0.4619E+00
 -17.128  0.3070E+00  0.4649E+00
 -17.118  0.3075E+00  0.4680E+00
 -17.108  0.3080E+00  0.4711E+00
 -17.098  0.3085E+00  0.4742E+00
 -17.088  0.3089E+00  0.4773E+00
 -17.078  0.3094E+00  0.4803E+00
 -17.068  0.3099E+00  0.4834E+00
 -17.058  0.3104E+00  0.4865E+00
 -17.048  0.3109E+00  0.4897E+00
 -17.038  0.3114E+00  0.4928E+00
 -17.028  0.3119E+00  0.4959E+00
 -17.018  0.3124E+00  0.4990E+00
 -17.008  0.3129E+00  0.5021E+00
 -16.998  0.3133E+00  0.5053E+00
 -16.988  0.3138E+00  0.5084E+00
 -16.978  0.3143E+00  0.5116E+00
 -16.968  0.3148E+00  0.5147E+00
 -16.958  0.3153E+00  0.5179E+00
 -16.948  0.3158E+00  0.5210E+00
 -16.938  0.3163E+00  0.5242E+00
 -16.928  0.3168E+00  0.5273E+00
 -16.918  0.3173E+00  0.5305E+00
 -16.908  0.3177E+00  0.5337E+00
 -16.898  0.3182E+00  0.5369E+00
 -16.888  0.3187E+00  0.5401E+00
 -16.878  0.3192E+00  0.5433E+00
 -16.868  0.3197E+00  0.5465E+00
 -16.858  0.3202E+00  0.5497E+00
 -16.848  0.3207E+00  0.5529E+00
 -16.838  0.3212E+00  0.5561E+00
 -16.828  0.3217E+00  0.5593E+00
 -16.818  0.3221E+00  0.5625E+00
 -16.808  0.3226E+00  0.5657E+00
 -16.798  0.3231E+00  0.5690E+00
 -16.788  0.3236E+00  0.5722E+00
 -16.778  0.3241E+00  0.5754E+00
 -16.768  0.3246E+00  0.5787E+00
 -16.758  0.3251E+00  0.5819E+00
 -16.748  0.3256E+00  0.5852E+00
 -16.738  0.3261E+00  0.5885E+00
 -16.728  0.3265E+00  0.5917E+00
 -16.718  0.3270E+00  0.5950E+00
 -16.708  0.3259E+00  0.5983E+00
 -16.698  0.3248E+00  0.6015E+00
 -16.688  0.3237E+00  0.6047E+00
 -16.678  0.3226E+00  0.6080E+00
 -16.668  0.3216E+00  0.6112E+00
 -16.658  0.3205E+00  0.6144E+00
 -16.648  0.3194E+00  0.6176E+00
 -16.638  0.3183E+00  0.6208E+00
 -16.628  0.3172E+00  0.6239E+00
 -16.618  0.3162E+00  0.6271E+00
 -16.608  0.3151E+00  0.6302E+00
 -16.598  0.3140E+00  0.6334E+00
 -16.588  0.3129E+00  0.6365E+00
 -16.578  0.3118E+00  0.6396E+00
 -16.568  0.3107E+00  0.6427E+00
 -16.558  0.3097E+00  0.6458E+00
 -16.548  0.3098E+00  0.6489E+00
 -16.538  0.3099E+00  0.6520E+00
 -16.528  0.3100E+00  0.6551E+00
 -16.518  0.3102E+00  0.6582E+00
 -16.508  0.3103E+00  0.6613E+00
 -16.498  0.3105E+00  0.6644E+00
 -16.488  0.3106E+00  0.6676E+00
 -16.478  0.3107E+00  0.6707E+00
 -16.468  0.3109E+00  0.6738E+00
 -16.458  0.3110E+00  0.6769E+00
 -16.448  0.3111E+00  0.6800E+00
 -16.438  0.3113E+00  0.6831E+00
 -16.428  0.3114E+00  0.6862E+00
 -16.418  0.3115E+00  0.6893E+00
 -16.408  0.3117E+00  0.6924E+00
 -16.398  0.3118E+00  0.6956E+00
 -16.388  0.3119E+00  0.6987E+00
 -16.378  0.3121E+00  0.7018E+00
 -16.368  0.3122E+00  0.7049E+00
 -16.358  0.3123E+00  0.7081E+00
 -16.348  0.3125E+00  0.7112E+00
 -16.338  0.3126E+00  0.7143E+00
 -16.328  0.3127E+00  0.7174E+00
 -16.318  0.3129E+00  0.7206E+00
 -16.308  0.3130E+00  0.7237E+00
 -16.298  0.3131E+00  0.7268E+00
 -16.288  0.3133E+00  0.7300E+00
 -16.278  0.3134E+00  0.7331E+00
 -16.268  0.3136E+00  0.7362E+00
 -16.258  0.3137E+00  0.7394E+00
 -16.248  0.3138E+00  0.7425E+00
 -16.238  0.3140E+00  0.7456E+00
 -16.228  0.3141E+00  0.7488E+00
 -16.218  0.3142E+00  0.7519E+00
 -16.208  0.3144E+00  0.7551E+00
 -16.198  0.3145E+00  0.7582E+00
 -16.188  0.3146E+00  0.7614E+00
 -16.178  0.3148E+00  0.7645E+00
 -16.168  0.3149E+00  0.7677E+00
 -16.158  0.3150E+00  0.7708E+00
 -16.148  0.3152E+00  0.7740E+00
 -16.138  0.3153E+00  0.7771E+00
 -16.128  0.3154E+00  0.7803E+00
 -16.118  0.3156E+00  0.7834E+00
 -16.108  0.3157E+00  0.7866E+00
 -16.098  0.3158E+00  0.7897E+00
 -16.088  0.3160E+00  0.7929E+00
 -16.078  0.3162E+00  0.7961E+00
 -16.068  0.3165E+00  0.7992E+00
 -16.058  0.3168E+00  0.8024E+00
 -16.048  0.3171E+00  0.8056E+00
 -16.038  0.3174E+00  0.8087E+00
 -16.028  0.3178E+00  0.8119E+00
 -16.018  0.3181E+00  0.8151E+00
 -16.008  0.3184E+00  0.8183E+00
 -15.998  0.3187E+00  0.8215E+00
 -15.988  0.3190E+00  0.8247E+00
 -15.978  0.3194E+00  0.8278E+00
 -15.968  0.3197E+00  0.8310E+00
 -15.958  0.3200E+00  0.8342E+00
 -15.948  0.3203E+00  0.8374E+00
 -15.938  0.3206E+00  0.8407E+00
 -15.928  0.3210E+00  0.8439E+00
 -15.918  0.3213E+00  0.8471E+00
 -15.908  0.3216E+00  0.8503E+00
 -15.898  0.3219E+00  0.8535E+00
 -15.888  0.3222E+00  0.8567E+00
 -15.878  0.3226E+00  0.8600E+00
 -15.868  0.3229E+00  0.8632E+00
 -15.858  0.3232E+00  0.8664E+00
 -15.848  0.3235E+00  0.8697E+00
 -15.838  0.3239E+00  0.8729E+00
 -15.828  0.3242E+00  0.8761E+00
 -15.818  0.3245E+00  0.8794E+00
 -15.808  0.3248E+00  0.8826E+00
 -15.798  0.3251E+00  0.8859E+00
 -15.788  0.3255E+00  0.8891E+00
 -15.778  0.3258E+00  0.8924E+00
 -15.768  0.3261E+00  0.8957E+00
 -15.758  0.3264E+00  0.8989E+00
 -15.748  0.3267E+00  0.9022E+00
 -15.738  0.3271E+00  0.9055E+00
 -15.728  0.3274E+00  0.9087E+00
 -15.718  0.3277E+00  0.9120E+00
 -15.708  0.3280E+00  0.9153E+00
 -15.698  0.3283E+00  0.9186E+00
 -15.688  0.3287E+00  0.9219E+00
 -15.678  0.3290E+00  0.9251E+00
 -15.668  0.3293E+00  0.9284E+00
 -15.658  0.3296E+00  0.9317E+00
 -15.648  0.3300E+00  0.9350E+00
 -15.638  0.3303E+00  0.9383E+00
 -15.628  0.3306E+00  0.9416E+00
 -15.618  0.3309E+00  0.9450E+00
 -15.608  0.3312E+00  0.9483E+00
 -15.598  0.3239E+00  0.9515E+00
 -15.588  0.3239E+00  0.9547E+00
 -15.578  0.3238E+00  0.9580E+00
 -15.568  0.3237E+00  0.9612E+00
 -15.558  0.3236E+00  0.9645E+00
 -15.548  0.3235E+00  0.9677E+00
 -15.538  0.3234E+00  0.9709E+00
 -15.528  0.3233E+00  0.9742E+00
 -15.518  0.3233E+00  0.9774E+00
 -15.508  0.3232E+00  0.9806E+00
 -15.498  0.3231E+00  0.9839E+00
 -15.488  0.3230E+00  0.9871E+00
 -15.478  0.3229E+00  0.9903E+00
 -15.468  0.3228E+00  0.9935E+00
 -15.458  0.3227E+00  0.9968E+00
 -15.448  0.3226E+00  0.1000E+01
 -15.438  0.3226E+00  0.1003E+01
 -15.428  0.3225E+00  0.1006E+01
 -15.418  0.3224E+00  0.1010E+01
 -15.408  0.3223E+00  0.1013E+01
 -15.398  0.3222E+00  0.1016E+01
 -15.388  0.3221E+00  0.1019E+01
 -15.378  0.3220E+00  0.1023E+01
 -15.368  0.3220E+00  0.1026E+01
 -15.358  0.3219E+00  0.1029E+01
 -15.348  0.3218E+00  0.1032E+01
 -15.338  0.3217E+00  0.1035E+01
 -15.328  0.3216E+00  0.1039E+01
 -15.318  0.3215E+00  0.1042E+01
 -15.308  0.3214E+00  0.1045E+01
 -15.298  0.3214E+00  0.1048E+01
 -15.288  0.3215E+00  0.1052E+01
 -15.278  0.3218E+00  0.1055E+01
 -15.268  0.3220E+00  0.1058E+01
 -15.258  0.3222E+00  0.1061E+01
 -15.248  0.3225E+00  0.1064E+01
 -15.238  0.3227E+00  0.1068E+01
 -15.228  0.3230E+00  0.1071E+01
 -15.218  0.3232E+00  0.1074E+01
 -15.208  0.3235E+00  0.1077E+01
 -15.198  0.3237E+00  0.1081E+01
 -15.188  0.3240E+00  0.1084E+01
 -15.178  0.3242E+00  0.1087E+01
 -15.168  0.3244E+00  0.1090E+01
 -15.158  0.3247E+00  0.1094E+01
 -15.148  0.3249E+00  0.1097E+01
 -15.138  0.3252E+00  0.1100E+01
 -15.128  0.3254E+00  0.1103E+01
 -15.118  0.3257E+00  0.1107E+01
 -15.108  0.3259E+00  0.1110E+01
 -15.098  0.3262E+00  0.1113E+01
 -15.088  0.3264E+00  0.1116E+01
 -15.078  0.3266E+00  0.1120E+01
 -15.068  0.3269E+00  0.1123E+01
 -15.058  0.3271E+00  0.1126E+01
 -15.048  0.3274E+00  0.1129E+01
 -15.038  0.3276E+00  0.1133E+01
 -15.028  0.3279E+00  0.1136E+01
 -15.018  0.3281E+00  0.1139E+01
 -15.008  0.3284E+00  0.1143E+01
 -14.998  0.3286E+00  0.1146E+01
 -14.988  0.3289E+00  0.1149E+01
 -14.978  0.3291E+00  0.1152E+01
 -14.968  0.3293E+00  0.1156E+01
 -14.958  0.3296E+00  0.1159E+01
 -14.948  0.3298E+00  0.1162E+01
 -14.938  0.3301E+00  0.1166E+01
 -14.928  0.3303E+00  0.1169E+01
 -14.918  0.3306E+00  0.1172E+01
 -14.908  0.3308E+00  0.1175E+01
 -14.898  0.3311E+00  0.1179E+01
 -14.888  0.3313E+00  0.1182E+01
 -14.878  0.3315E+00  0.1185E+01
 -14.868  0.3318E+00  0.1189E+01
 -14.858  0.3320E+00  0.1192E+01
 -14.848  0.3323E+00  0.1195E+01
 -14.838  0.3325E+00  0.1199E+01
 -14.828  0.3328E+00  0.1202E+01
 -14.818  0.3330E+00  0.1205E+01
 -14.808  0.3333E+00  0.1209E+01
 -14.798  0.3335E+00  0.1212E+01
 -14.788  0.3338E+00  0.1215E+01
 -14.778  0.3340E+00  0.1219E+01
 -14.768  0.3342E+00  0.1222E+01
 -14.758  0.3345E+00  0.1225E+01
 -14.748  0.3347E+00  0.1229E+01
 -14.738  0.3350E+00  0.1232E+01
 -14.728  0.3352E+00  0.1235E+01
 -14.718  0.3355E+00  0.1239E+01
 -14.708  0.3357E+00  0.1242E+01
 -14.698  0.3360E+00  0.1246E+01
 -14.688  0.3362E+00  0.1249E+01
 -14.678  0.3365E+00  0.1252E+01
 -14.668  0.3371E+00  0.1256E+01
 -14.658  0.3377E+00  0.1259E+01
 -14.648  0.3383E+00  0.1262E+01
 -14.638  0.3388E+00  0.1266E+01
 -14.628  0.3394E+00  0.1269E+01
 -14.618  0.3400E+00  0.1273E+01
 -14.608  0.3406E+00  0.1276E+01
 -14.598  0.3411E+00  0.1279E+01
 -14.588  0.3417E+00  0.1283E+01
 -14.578  0.3423E+00  0.1286E+01
 -14.568  0.3429E+00  0.1290E+01
 -14.558  0.3434E+00  0.1293E+01
 -14.548  0.3440E+00  0.1297E+01
 -14.538  0.3446E+00  0.1300E+01
 -14.528  0.3452E+00  0.1303E+01
 -14.518  0.3457E+00  0.1307E+01
 -14.508  0.3463E+00  0.1310E+01
 -14.498  0.3469E+00  0.1314E+01
 -14.488  0.3475E+00  0.1317E+01
 -14.478  0.3480E+00  0.1321E+01
 -14.468  0.3486E+00  0.1324E+01
 -14.458  0.3492E+00  0.1328E+01
 -14.448  0.3498E+00  0.1331E+01
 -14.438  0.3503E+00  0.1335E+01
 -14.428  0.3509E+00  0.1338E+01
 -14.418  0.3515E+00  0.1342E+01
 -14.408  0.3521E+00  0.1345E+01
 -14.398  0.3526E+00  0.1349E+01
 -14.388  0.3532E+00  0.1352E+01
 -14.378  0.3538E+00  0.1356E+01
 -14.368  0.3541E+00  0.1359E+01
 -14.358  0.3544E+00  0.1363E+01
 -14.348  0.3547E+00  0.1367E+01
 -14.338  0.3550E+00  0.1370E+01
 -14.328  0.3553E+00  0.1374E+01
 -14.318  0.3555E+00  0.1377E+01
 -14.308  0.3558E+00  0.1381E+01
 -14.298  0.3561E+00  0.1384E+01
 -14.288  0.3564E+00  0.1388E+01
 -14.278  0.3567E+00  0.1391E+01
 -14.268  0.3570E+00  0.1395E+01
 -14.258  0.3573E+00  0.1399E+01
 -14.248  0.3576E+00  0.1402E+01
 -14.238  0.3579E+00  0.1406E+01
 -14.228  0.3583E+00  0.1409E+01
 -14.218  0.3596E+00  0.1413E+01
 -14.208  0.3610E+00  0.1417E+01
 -14.198  0.3623E+00  0.1420E+01
 -14.188  0.3636E+00  0.1424E+01
 -14.178  0.3649E+00  0.1427E+01
 -14.168  0.3662E+00  0.1431E+01
 -14.158  0.3675E+00  0.1435E+01
 -14.148  0.3688E+00  0.1438E+01
 -14.138  0.3702E+00  0.1442E+01
 -14.128  0.3715E+00  0.1446E+01
 -14.118  0.3728E+00  0.1450E+01
 -14.108  0.3741E+00  0.1453E+01
 -14.098  0.3754E+00  0.1457E+01
 -14.088  0.3767E+00  0.1461E+01
 -14.078  0.3781E+00  0.1465E+01
 -14.068  0.3794E+00  0.1468E+01
 -14.058  0.3807E+00  0.1472E+01
 -14.048  0.3820E+00  0.1476E+01
 -14.038  0.3833E+00  0.1480E+01
 -14.028  0.3846E+00  0.1484E+01
 -14.018  0.3859E+00  0.1488E+01
 -14.008  0.3873E+00  0.1491E+01
 -13.998  0.3886E+00  0.1495E+01
 -13.988  0.3899E+00  0.1499E+01
 -13.978  0.3912E+00  0.1503E+01
 -13.968  0.3925E+00  0.1507E+01
 -13.958  0.3938E+00  0.1511E+01
 -13.948  0.3952E+00  0.1515E+01
 -13.938  0.3965E+00  0.1519E+01
 -13.928  0.3978E+00  0.1523E+01
 -13.918  0.3991E+00  0.1527E+01
 -13.908  0.4004E+00  0.1531E+01
 -13.898  0.4017E+00  0.1535E+01
 -13.888  0.4030E+00  0.1539E+01
 -13.878  0.4044E+00  0.1543E+01
 -13.868  0.4057E+00  0.1547E+01
 -13.858  0.4070E+00  0.1551E+01
 -13.848  0.4083E+00  0.1555E+01
 -13.838  0.4096E+00  0.1559E+01
 -13.828  0.4109E+00  0.1563E+01
 -13.818  0.4123E+00  0.1568E+01
 -13.808  0.7185E+00  0.1575E+01
 -13.798  0.7076E+00  0.1582E+01
 -13.788  0.6967E+00  0.1589E+01
 -13.778  0.6858E+00  0.1596E+01
 -13.768  0.6748E+00  0.1602E+01
 -13.758  0.6639E+00  0.1609E+01
 -13.748  0.6530E+00  0.1616E+01
 -13.738  0.6420E+00  0.1622E+01
 -13.728  0.6311E+00  0.1628E+01
 -13.718  0.6202E+00  0.1634E+01
 -13.708  0.6092E+00  0.1641E+01
 -13.698  0.5983E+00  0.1647E+01
 -13.688  0.5874E+00  0.1652E+01
 -13.678  0.5764E+00  0.1658E+01
 -13.668  0.5655E+00  0.1664E+01
 -13.658  0.5546E+00  0.1669E+01
 -13.648  0.5437E+00  0.1675E+01
 -13.638  0.5327E+00  0.1680E+01
 -13.628  0.5218E+00  0.1685E+01
 -13.618  0.5109E+00  0.1690E+01
 -13.608  0.4999E+00  0.1695E+01
 -13.598  0.4890E+00  0.1700E+01
 -13.588  0.4781E+00  0.1705E+01
 -13.578  0.4671E+00  0.1710E+01
 -13.568  0.4562E+00  0.1714E+01
 -13.558  0.4453E+00  0.1719E+01
 -13.548  0.4343E+00  0.1723E+01
 -13.538  0.4234E+00  0.1727E+01
 -13.528  0.4125E+00  0.1732E+01
 -13.518  0.4016E+00  0.1736E+01
 -13.508  0.3906E+00  0.1739E+01
 -13.498  0.3797E+00  0.1743E+01
 -13.488  0.3688E+00  0.1747E+01
 -13.478  0.3578E+00  0.1751E+01
 -13.468  0.3469E+00  0.1754E+01
 -13.458  0.3360E+00  0.1757E+01
 -13.448  0.3250E+00  0.1761E+01
 -13.438  0.3141E+00  0.1764E+01
 -13.428  0.3032E+00  0.1767E+01
 -13.418  0.2923E+00  0.1770E+01
 -13.408  0.2880E+00  0.1773E+01
 -13.398  0.2857E+00  0.1775E+01
 -13.388  0.2833E+00  0.1778E+01
 -13.378  0.2810E+00  0.1781E+01
 -13.368  0.2786E+00  0.1784E+01
 -13.358  0.2763E+00  0.1787E+01
 -13.348  0.2740E+00  0.1789E+01
 -13.338  0.2716E+00  0.1792E+01
 -13.328  0.2693E+00  0.1795E+01
 -13.318  0.2669E+00  0.1797E+01
 -13.308  0.2646E+00  0.1800E+01
 -13.298  0.2623E+00  0.1803E+01
 -13.288  0.2599E+00  0.1805E+01
 -13.278  0.2576E+00  0.1808E+01
 -13.268  0.2552E+00  0.1810E+01
 -13.258  0.2529E+00  0.1813E+01
 -13.248  0.2505E+00  0.1815E+01
 -13.238  0.2482E+00  0.1818E+01
 -13.228  0.2459E+00  0.1820E+01
 -13.218  0.2435E+00  0.1823E+01
 -13.208  0.2412E+00  0.1825E+01
 -13.198  0.2388E+00  0.1828E+01
 -13.188  0.2365E+00  0.1830E+01
 -13.178  0.2342E+00  0.1832E+01
 -13.168  0.2318E+00  0.1835E+01
 -13.158  0.2295E+00  0.1837E+01
 -13.148  0.2271E+00  0.1839E+01
 -13.138  0.2248E+00  0.1841E+01
 -13.128  0.2224E+00  0.1844E+01
 -13.118  0.2201E+00  0.1846E+01
 -13.108  0.2178E+00  0.1848E+01
 -13.098  0.2154E+00  0.1850E+01
 -13.088  0.2131E+00  0.1852E+01
 -13.078  0.2107E+00  0.1854E+01
 -13.068  0.2084E+00  0.1857E+01
 -13.058  0.2061E+00  0.1859E+01
 -13.048  0.2037E+00  0.1861E+01
 -13.038  0.2014E+00  0.1863E+01
 -13.028  0.1990E+00  0.1865E+01
 -13.018  0.1967E+00  0.1867E+01
 -13.008  0.1943E+00  0.1869E+01
 -12.998  0.1920E+00  0.1871E+01
 -12.988  0.5119E+00  0.1876E+01
 -12.978  0.9822E+00  0.1885E+01
 -12.968  0.1453E+01  0.1900E+01
 -12.958  0.1923E+01  0.1919E+01
 -12.948  0.1355E+00  0.1921E+01
 -12.938  0.1344E+00  0.1922E+01
 -12.928  0.1333E+00  0.1923E+01
 -12.918  0.1321E+00  0.1925E+01
 -12.908  0.1310E+00  0.1926E+01
 -12.898  0.1299E+00  0.1927E+01
 -12.888  0.1288E+00  0.1928E+01
 -12.878  0.1277E+00  0.1930E+01
 -12.868  0.1266E+00  0.1931E+01
 -12.858  0.1255E+00  0.1932E+01
 -12.848  0.1244E+00  0.1933E+01
 -12.838  0.1232E+00  0.1935E+01
 -12.828  0.1221E+00  0.1936E+01
 -12.818  0.1210E+00  0.1937E+01
 -12.808  0.1199E+00  0.1938E+01
 -12.798  0.1188E+00  0.1940E+01
 -12.788  0.1177E+00  0.1941E+01
 -12.778  0.1166E+00  0.1942E+01
 -12.768  0.1155E+00  0.1943E+01
 -12.758  0.1143E+00  0.1944E+01
 -12.748  0.1132E+00  0.1945E+01
 -12.738  0.1121E+00  0.1946E+01
 -12.728  0.1110E+00  0.1948E+01
 -12.718  0.1099E+00  0.1949E+01
 -12.708  0.1088E+00  0.1950E+01
 -12.698  0.1077E+00  0.1951E+01
 -12.688  0.1066E+00  0.1952E+01
 -12.678  0.1054E+00  0.1953E+01
 -12.668  0.1043E+00  0.1954E+01
 -12.658  0.1032E+00  0.1955E+01
 -12.648  0.1021E+00  0.1956E+01
 -12.638  0.1010E+00  0.1957E+01
 -12.628  0.9989E-01  0.1958E+01
 -12.618  0.9877E-01  0.1959E+01
 -12.608  0.9766E-01  0.1960E+01
 -12.598  0.9655E-01  0.1961E+01
 -12.588  0.9544E-01  0.1962E+01
 -12.578  0.9432E-01  0.1963E+01
 -12.568  0.9321E-01  0.1964E+01
 -12.558  0.9210E-01  0.1965E+01
 -12.548  0.9099E-01  0.1966E+01
 -12.538  0.8987E-01  0.1967E+01
 -12.528  0.8876E-01  0.1967E+01
 -12.518  0.8765E-01  0.1968E+01
 -12.508  0.8654E-01  0.1969E+01
 -12.498  0.8542E-01  0.1970E+01
 -12.488  0.8431E-01  0.1971E+01
 -12.478  0.8320E-01  0.1972E+01
 -12.468  0.8209E-01  0.1973E+01
 -12.458  0.8097E-01  0.1973E+01
 -12.448  0.7986E-01  0.1974E+01
 -12.438  0.7875E-01  0.1975E+01
 -12.428  0.7764E-01  0.1976E+01
 -12.418  0.7652E-01  0.1976E+01
 -12.408  0.7541E-01  0.1977E+01
 -12.398  0.7430E-01  0.1978E+01
 -12.388  0.7319E-01  0.1979E+01
 -12.378  0.7242E-01  0.1979E+01
 -12.368  0.7487E-01  0.1980E+01
 -12.358  0.7732E-01  0.1981E+01
 -12.348  0.7976E-01  0.1982E+01
 -12.338  0.8221E-01  0.1983E+01
 -12.328  0.8466E-01  0.1983E+01
 -12.318  0.8711E-01  0.1984E+01
 -12.308  0.8956E-01  0.1985E+01
 -12.298  0.9200E-01  0.1986E+01
 -12.288  0.9445E-01  0.1987E+01
 -12.278  0.9690E-01  0.1988E+01
 -12.268  0.9935E-01  0.1989E+01
 -12.258  0.1018E+00  0.1990E+01
 -12.248  0.1042E+00  0.1991E+01
 -12.238  0.1067E+00  0.1992E+01
 -12.228  0.1091E+00  0.1993E+01
 -12.218  0.1116E+00  0.1994E+01
 -12.208  0.1140E+00  0.1995E+01
 -12.198  0.1165E+00  0.1997E+01
 -12.188  0.1189E+00  0.1998E+01
 -12.178  0.1214E+00  0.1999E+01
 -12.168  0.1238E+00  0.2000E+01
 -12.158  0.1263E+00  0.2002E+01
 -12.148  0.1287E+00  0.2003E+01
 -12.138  0.1312E+00  0.2004E+01
 -12.128  0.1336E+00  0.2005E+01
 -12.118  0.1361E+00  0.2007E+01
 -12.108  0.1385E+00  0.2008E+01
 -12.098  0.1410E+00  0.2010E+01
 -12.088  0.1434E+00  0.2011E+01
 -12.078  0.1459E+00  0.2013E+01
 -12.068  0.1483E+00  0.2014E+01
 -12.058  0.1508E+00  0.2015E+01
 -12.048  0.1532E+00  0.2017E+01
 -12.038  0.1556E+00  0.2019E+01
 -12.028  0.1581E+00  0.2020E+01
 -12.018  0.1605E+00  0.2022E+01
 -12.008  0.1630E+00  0.2023E+01
 -11.998  0.1654E+00  0.2025E+01
 -11.988  0.1679E+00  0.2027E+01
 -11.978  0.1703E+00  0.2028E+01
 -11.968  0.1913E+00  0.2030E+01
 -11.958  0.2126E+00  0.2032E+01
 -11.948  0.2339E+00  0.2035E+01
 -11.938  0.2553E+00  0.2037E+01
 -11.928  0.2766E+00  0.2040E+01
 -11.918  0.2979E+00  0.2043E+01
 -11.908  0.3192E+00  0.2046E+01
 -11.898  0.3405E+00  0.2050E+01
 -11.888  0.3619E+00  0.2053E+01
 -11.878  0.3832E+00  0.2057E+01
 -11.868  0.4045E+00  0.2061E+01
 -11.858  0.4258E+00  0.2065E+01
 -11.848  0.4471E+00  0.2070E+01
 -11.838  0.4684E+00  0.2075E+01
 -11.828  0.4898E+00  0.2080E+01
 -11.818  0.5111E+00  0.2085E+01
 -11.808  0.5324E+00  0.2090E+01
 -11.798  0.5537E+00  0.2095E+01
 -11.788  0.5750E+00  0.2101E+01
 -11.778  0.5964E+00  0.2107E+01
 -11.768  0.6177E+00  0.2113E+01
 -11.758  0.6390E+00  0.2120E+01
 -11.748  0.6603E+00  0.2126E+01
 -11.738  0.6816E+00  0.2133E+01
 -11.728  0.7040E+00  0.2140E+01
 -11.718  0.7305E+00  0.2148E+01
 -11.708  0.2986E+00  0.2151E+01
 -11.698  0.3044E+00  0.2154E+01
 -11.688  0.3102E+00  0.2157E+01
 -11.678  0.3160E+00  0.2160E+01
 -11.668  0.3219E+00  0.2163E+01
 -11.658  0.3277E+00  0.2166E+01
 -11.648  0.3335E+00  0.2170E+01
 -11.638  0.3393E+00  0.2173E+01
 -11.628  0.3452E+00  0.2177E+01
 -11.618  0.3510E+00  0.2180E+01
 -11.608  0.3568E+00  0.2184E+01
 -11.598  0.3626E+00  0.2187E+01
 -11.588  0.3685E+00  0.2191E+01
 -11.578  0.3743E+00  0.2195E+01
 -11.568  0.3801E+00  0.2198E+01
 -11.558  0.3859E+00  0.2202E+01
 -11.548  0.3918E+00  0.2206E+01
 -11.538  0.3976E+00  0.2210E+01
 -11.528  0.4034E+00  0.2214E+01
 -11.518  0.4092E+00  0.2218E+01
 -11.508  0.4151E+00  0.2222E+01
 -11.498  0.4209E+00  0.2227E+01
 -11.488  0.4267E+00  0.2231E+01
 -11.478  0.4325E+00  0.2235E+01
 -11.468  0.4384E+00  0.2240E+01
 -11.458  0.4442E+00  0.2244E+01
 -11.448  0.4500E+00  0.2249E+01
 -11.438  0.4558E+00  0.2253E+01
 -11.428  0.4617E+00  0.2258E+01
 -11.418  0.4675E+00  0.2262E+01
 -11.408  0.4733E+00  0.2267E+01
 -11.398  0.4791E+00  0.2272E+01
 -11.388  0.4850E+00  0.2277E+01
 -11.378  0.4908E+00  0.2282E+01
 -11.368  0.4966E+00  0.2287E+01
 -11.358  0.5024E+00  0.2292E+01
 -11.348  0.5083E+00  0.2297E+01
 -11.338  0.5141E+00  0.2302E+01
 -11.328  0.5199E+00  0.2307E+01
 -11.318  0.5257E+00  0.2312E+01
 -11.308  0.5315E+00  0.2318E+01
 -11.298  0.5374E+00  0.2323E+01
 -11.288  0.5432E+00  0.2329E+01
 -11.278  0.5490E+00  0.2334E+01
 -11.268  0.5548E+00  0.2340E+01
 -11.258  0.5607E+00  0.2345E+01
 -11.248  0.5665E+00  0.2351E+01
 -11.238  0.5723E+00  0.2357E+01
 -11.228  0.5781E+00  0.2362E+01
 -11.218  0.5840E+00  0.2368E+01
 -11.208  0.5898E+00  0.2374E+01
 -11.198  0.5956E+00  0.2380E+01
 -11.188  0.6014E+00  0.2386E+01
 -11.178  0.6073E+00  0.2392E+01
 -11.168  0.6131E+00  0.2398E+01
 -11.158  0.6189E+00  0.2404E+01
 -11.148  0.6247E+00  0.2411E+01
 -11.138  0.6306E+00  0.2417E+01
 -11.128  0.6364E+00  0.2423E+01
 -11.118  0.6422E+00  0.2430E+01
 -11.108  0.6480E+00  0.2436E+01
 -11.098  0.6539E+00  0.2443E+01
 -11.088  0.6597E+00  0.2449E+01
 -11.078  0.3653E+00  0.2453E+01
 -11.068  0.3644E+00  0.2457E+01
 -11.058  0.3634E+00  0.2460E+01
 -11.048  0.3625E+00  0.2464E+01
 -11.038  0.3615E+00  0.2468E+01
 -11.028  0.3606E+00  0.2471E+01
 -11.018  0.3596E+00  0.2475E+01
 -11.008  0.3587E+00  0.2478E+01
 -10.998  0.3577E+00  0.2482E+01
 -10.988  0.3568E+00  0.2485E+01
 -10.978  0.3558E+00  0.2489E+01
 -10.968  0.3549E+00  0.2493E+01
 -10.958  0.3540E+00  0.2496E+01
 -10.948  0.3530E+00  0.2500E+01
 -10.938  0.3521E+00  0.2503E+01
 -10.928  0.3511E+00  0.2507E+01
 -10.918  0.3502E+00  0.2510E+01
 -10.908  0.3492E+00  0.2514E+01
 -10.898  0.3483E+00  0.2517E+01
 -10.888  0.3473E+00  0.2521E+01
 -10.878  0.3464E+00  0.2524E+01
 -10.868  0.3456E+00  0.2528E+01
 -10.858  0.3448E+00  0.2531E+01
 -10.848  0.3441E+00  0.2534E+01
 -10.838  0.3434E+00  0.2538E+01
 -10.828  0.3427E+00  0.2541E+01
 -10.818  0.3420E+00  0.2545E+01
 -10.808  0.3413E+00  0.2548E+01
 -10.798  0.3406E+00  0.2552E+01
 -10.788  0.3399E+00  0.2555E+01
 -10.778  0.3392E+00  0.2558E+01
 -10.768  0.3385E+00  0.2562E+01
 -10.758  0.3378E+00  0.2565E+01
 -10.748  0.3371E+00  0.2568E+01
 -10.738  0.3363E+00  0.2572E+01
 -10.728  0.3356E+00  0.2575E+01
 -10.718  0.3349E+00  0.2579E+01
 -10.708  0.3342E+00  0.2582E+01
 -10.698  0.3335E+00  0.2585E+01
 -10.688  0.3328E+00  0.2589E+01
 -10.678  0.3321E+00  0.2592E+01
 -10.668  0.3314E+00  0.2595E+01
 -10.658  0.3307E+00  0.2599E+01
 -10.648  0.3300E+00  0.2602E+01
 -10.638  0.3293E+00  0.2605E+01
 -10.628  0.3286E+00  0.2608E+01
 -10.618  0.3278E+00  0.2612E+01
 -10.608  0.3271E+00  0.2615E+01
 -10.598  0.3264E+00  0.2618E+01
 -10.588  0.3257E+00  0.2621E+01
 -10.578  0.3250E+00  0.2625E+01
 -10.568  0.3243E+00  0.2628E+01
 -10.558  0.3236E+00  0.2631E+01
 -10.548  0.3229E+00  0.2634E+01
 -10.538  0.3222E+00  0.2638E+01
 -10.528  0.3214E+00  0.2641E+01
 -10.518  0.3206E+00  0.2644E+01
 -10.508  0.3198E+00  0.2647E+01
 -10.498  0.3190E+00  0.2650E+01
 -10.488  0.3182E+00  0.2654E+01
 -10.478  0.3174E+00  0.2657E+01
 -10.468  0.3166E+00  0.2660E+01
 -10.458  0.3158E+00  0.2663E+01
 -10.448  0.3150E+00  0.2666E+01
 -10.438  0.3142E+00  0.2669E+01
 -10.428  0.3134E+00  0.2673E+01
 -10.418  0.3126E+00  0.2676E+01
 -10.408  0.3118E+00  0.2679E+01
 -10.398  0.3110E+00  0.2682E+01
 -10.388  0.3102E+00  0.2685E+01
 -10.378  0.3094E+00  0.2688E+01
 -10.368  0.3086E+00  0.2691E+01
 -10.358  0.3078E+00  0.2694E+01
 -10.348  0.3070E+00  0.2697E+01
 -10.338  0.3062E+00  0.2700E+01
 -10.328  0.3054E+00  0.2703E+01
 -10.318  0.3046E+00  0.2706E+01
 -10.308  0.3038E+00  0.2710E+01
 -10.298  0.3030E+00  0.2713E+01
 -10.288  0.3022E+00  0.2716E+01
 -10.278  0.3014E+00  0.2719E+01
 -10.268  0.3006E+00  0.2722E+01
 -10.258  0.2998E+00  0.2725E+01
 -10.248  0.2990E+00  0.2728E+01
 -10.238  0.2982E+00  0.2731E+01
 -10.228  0.2974E+00  0.2734E+01
 -10.218  0.2966E+00  0.2737E+01
 -10.208  0.2958E+00  0.2739E+01
 -10.198  0.2950E+00  0.2742E+01
 -10.188  0.2942E+00  0.2745E+01
 -10.178  0.2934E+00  0.2748E+01
 -10.168  0.2926E+00  0.2751E+01
 -10.158  0.2918E+00  0.2754E+01
 -10.148  0.2910E+00  0.2757E+01
 -10.138  0.2902E+00  0.2760E+01
 -10.128  0.2894E+00  0.2763E+01
 -10.118  0.2886E+00  0.2766E+01
 -10.108  0.2878E+00  0.2769E+01
 -10.098  0.2870E+00  0.2771E+01
 -10.088  0.2862E+00  0.2774E+01
 -10.078  0.2854E+00  0.2777E+01
 -10.068  0.2846E+00  0.2780E+01
 -10.058  0.2839E+00  0.2783E+01
 -10.048  0.2831E+00  0.2786E+01
 -10.038  0.2823E+00  0.2789E+01
 -10.028  0.2815E+00  0.2791E+01
 -10.018  0.2807E+00  0.2794E+01
 -10.008  0.2799E+00  0.2797E+01
  -9.998  0.2791E+00  0.2800E+01
  -9.988  0.2783E+00  0.2803E+01
  -9.978  0.2775E+00  0.2805E+01
  -9.968  0.2767E+00  0.2808E+01
  -9.958  0.2759E+00  0.2811E+01
  -9.948  0.2751E+00  0.2814E+01
  -9.938  0.2743E+00  0.2816E+01
  -9.928  0.2735E+00  0.2819E+01
  -9.918  0.2727E+00  0.2822E+01
  -9.908  0.2719E+00  0.2825E+01
  -9.898  0.2711E+00  0.2827E+01
  -9.888  0.2703E+00  0.2830E+01
  -9.878  0.2695E+00  0.2833E+01
  -9.868  0.2687E+00  0.2835E+01
  -9.858  0.2679E+00  0.2838E+01
  -9.848  0.2671E+00  0.2841E+01
  -9.838  0.2663E+00  0.2843E+01
  -9.828  0.2655E+00  0.2846E+01
  -9.818  0.2647E+00  0.2849E+01
  -9.808  0.2639E+00  0.2851E+01
  -9.798  0.2631E+00  0.2854E+01
  -9.788  0.2623E+00  0.2857E+01
  -9.778  0.2615E+00  0.2859E+01
  -9.768  0.2607E+00  0.2862E+01
  -9.758  0.2599E+00  0.2864E+01
  -9.748  0.2590E+00  0.2867E+01
  -9.738  0.2582E+00  0.2869E+01
  -9.728  0.2573E+00  0.2872E+01
  -9.718  0.2565E+00  0.2875E+01
  -9.708  0.2557E+00  0.2877E+01
  -9.698  0.2548E+00  0.2880E+01
  -9.688  0.2540E+00  0.2882E+01
  -9.678  0.2531E+00  0.2885E+01
  -9.668  0.2540E+00  0.2887E+01
  -9.658  0.2558E+00  0.2890E+01
  -9.648  0.2578E+00  0.2892E+01
  -9.638  0.2598E+00  0.2895E+01
  -9.628  0.2618E+00  0.2898E+01
  -9.618  0.2638E+00  0.2900E+01
  -9.608  0.2658E+00  0.2903E+01
  -9.598  0.2678E+00  0.2906E+01
  -9.588  0.2698E+00  0.2908E+01
  -9.578  0.2717E+00  0.2911E+01
  -9.568  0.2737E+00  0.2914E+01
  -9.558  0.2757E+00  0.2917E+01
  -9.548  0.2777E+00  0.2919E+01
  -9.538  0.2797E+00  0.2922E+01
  -9.528  0.2817E+00  0.2925E+01
  -9.518  0.2837E+00  0.2928E+01
  -9.508  0.2857E+00  0.2931E+01
  -9.498  0.2876E+00  0.2934E+01
  -9.488  0.2896E+00  0.2936E+01
  -9.478  0.2916E+00  0.2939E+01
  -9.468  0.2936E+00  0.2942E+01
  -9.458  0.2956E+00  0.2945E+01
  -9.448  0.2976E+00  0.2948E+01
  -9.438  0.2996E+00  0.2951E+01
  -9.428  0.3016E+00  0.2954E+01
  -9.418  0.3036E+00  0.2957E+01
  -9.408  0.3055E+00  0.2960E+01
  -9.398  0.3075E+00  0.2963E+01
  -9.388  0.3095E+00  0.2967E+01
  -9.378  0.3115E+00  0.2970E+01
  -9.368  0.3135E+00  0.2973E+01
  -9.358  0.3155E+00  0.2976E+01
  -9.348  0.3175E+00  0.2979E+01
  -9.338  0.3195E+00  0.2982E+01
  -9.328  0.3214E+00  0.2985E+01
  -9.318  0.3234E+00  0.2989E+01
  -9.308  0.3254E+00  0.2992E+01
  -9.298  0.3274E+00  0.2995E+01
  -9.288  0.3294E+00  0.2999E+01
  -9.278  0.3314E+00  0.3002E+01
  -9.268  0.3334E+00  0.3005E+01
  -9.258  0.3354E+00  0.3009E+01
  -9.248  0.3373E+00  0.3012E+01
  -9.238  0.3393E+00  0.3015E+01
  -9.228  0.3413E+00  0.3019E+01
  -9.218  0.3433E+00  0.3022E+01
  -9.208  0.3453E+00  0.3026E+01
  -9.198  0.3473E+00  0.3029E+01
  -9.188  0.3493E+00  0.3033E+01
  -9.178  0.3513E+00  0.3036E+01
  -9.168  0.3532E+00  0.3040E+01
  -9.158  0.3552E+00  0.3043E+01
  -9.148  0.3572E+00  0.3047E+01
  -9.138  0.3592E+00  0.3050E+01
  -9.128  0.3612E+00  0.3054E+01
  -9.118  0.3632E+00  0.3058E+01
  -9.108  0.3652E+00  0.3061E+01
  -9.098  0.3672E+00  0.3065E+01
  -9.088  0.3692E+00  0.3069E+01
  -9.078  0.3711E+00  0.3072E+01
  -9.068  0.3731E+00  0.3076E+01
  -9.058  0.3751E+00  0.3080E+01
  -9.048  0.3771E+00  0.3084E+01
  -9.038  0.3791E+00  0.3087E+01
  -9.028  0.3811E+00  0.3091E+01
  -9.018  0.3831E+00  0.3095E+01
  -9.008  0.3851E+00  0.3099E+01
  -8.998  0.3870E+00  0.3103E+01
  -8.988  0.3890E+00  0.3107E+01
  -8.978  0.3910E+00  0.3111E+01
  -8.968  0.3930E+00  0.3114E+01
  -8.958  0.3950E+00  0.3118E+01
  -8.948  0.3970E+00  0.3122E+01
  -8.938  0.3990E+00  0.3126E+01
  -8.928  0.4010E+00  0.3130E+01
  -8.918  0.4029E+00  0.3134E+01
  -8.908  0.4049E+00  0.3138E+01
  -8.898  0.4069E+00  0.3143E+01
  -8.888  0.4089E+00  0.3147E+01
  -8.878  0.4109E+00  0.3151E+01
  -8.868  0.4129E+00  0.3155E+01
  -8.858  0.4149E+00  0.3159E+01
  -8.848  0.4169E+00  0.3163E+01
  -8.838  0.4188E+00  0.3167E+01
  -8.828  0.4208E+00  0.3172E+01
  -8.818  0.4228E+00  0.3176E+01
  -8.808  0.4248E+00  0.3180E+01
  -8.798  0.4268E+00  0.3184E+01
  -8.788  0.4145E+00  0.3188E+01
  -8.778  0.4144E+00  0.3193E+01
  -8.768  0.4144E+00  0.3197E+01
  -8.758  0.4144E+00  0.3201E+01
  -8.748  0.4143E+00  0.3205E+01
  -8.738  0.4143E+00  0.3209E+01
  -8.728  0.4142E+00  0.3213E+01
  -8.718  0.4142E+00  0.3217E+01
  -8.708  0.4141E+00  0.3222E+01
  -8.698  0.4141E+00  0.3226E+01
  -8.688  0.4141E+00  0.3230E+01
  -8.678  0.4140E+00  0.3234E+01
  -8.668  0.4140E+00  0.3238E+01
  -8.658  0.4139E+00  0.3242E+01
  -8.648  0.4139E+00  0.3246E+01
  -8.638  0.4138E+00  0.3251E+01
  -8.628  0.4138E+00  0.3255E+01
  -8.618  0.3817E+00  0.3259E+01
  -8.608  0.3817E+00  0.3262E+01
  -8.598  0.3817E+00  0.3266E+01
  -8.588  0.3817E+00  0.3270E+01
  -8.578  0.3817E+00  0.3274E+01
  -8.568  0.3817E+00  0.3278E+01
  -8.558  0.3817E+00  0.3281E+01
  -8.548  0.3817E+00  0.3285E+01
  -8.538  0.3817E+00  0.3289E+01
  -8.528  0.3817E+00  0.3293E+01
  -8.518  0.3817E+00  0.3297E+01
  -8.508  0.3817E+00  0.3301E+01
  -8.498  0.3817E+00  0.3304E+01
  -8.488  0.3817E+00  0.3308E+01
  -8.478  0.3817E+00  0.3312E+01
  -8.468  0.3817E+00  0.3316E+01
  -8.458  0.3817E+00  0.3320E+01
  -8.448  0.3817E+00  0.3323E+01
  -8.438  0.3817E+00  0.3327E+01
  -8.428  0.3817E+00  0.3331E+01
  -8.418  0.3817E+00  0.3335E+01
  -8.408  0.3817E+00  0.3339E+01
  -8.398  0.3817E+00  0.3342E+01
  -8.388  0.3817E+00  0.3346E+01
  -8.378  0.3817E+00  0.3350E+01
  -8.368  0.3817E+00  0.3354E+01
  -8.358  0.3817E+00  0.3358E+01
  -8.348  0.3818E+00  0.3362E+01
  -8.338  0.3818E+00  0.3365E+01
  -8.328  0.3818E+00  0.3369E+01
  -8.318  0.3818E+00  0.3373E+01
  -8.308  0.3818E+00  0.3377E+01
  -8.298  0.3818E+00  0.3381E+01
  -8.288  0.3818E+00  0.3384E+01
  -8.278  0.3818E+00  0.3388E+01
  -8.268  0.3818E+00  0.3392E+01
  -8.258  0.3818E+00  0.3396E+01
  -8.248  0.3818E+00  0.3400E+01
  -8.238  0.3818E+00  0.3404E+01
  -8.228  0.3818E+00  0.3407E+01
  -8.218  0.3818E+00  0.3411E+01
  -8.208  0.3818E+00  0.3415E+01
  -8.198  0.3818E+00  0.3419E+01
  -8.188  0.3818E+00  0.3423E+01
  -8.178  0.3818E+00  0.3426E+01
  -8.168  0.3818E+00  0.3430E+01
  -8.158  0.3818E+00  0.3434E+01
  -8.148  0.3818E+00  0.3438E+01
  -8.138  0.3818E+00  0.3442E+01
  -8.128  0.3818E+00  0.3446E+01
  -8.118  0.3818E+00  0.3449E+01
  -8.108  0.3818E+00  0.3453E+01
  -8.098  0.3818E+00  0.3457E+01
  -8.088  0.3818E+00  0.3461E+01
  -8.078  0.3822E+00  0.3465E+01
  -8.068  0.3829E+00  0.3469E+01
  -8.058  0.3835E+00  0.3472E+01
  -8.048  0.3842E+00  0.3476E+01
  -8.038  0.3849E+00  0.3480E+01
  -8.028  0.3856E+00  0.3484E+01
  -8.018  0.3862E+00  0.3488E+01
  -8.008  0.3869E+00  0.3492E+01
  -7.998  0.3876E+00  0.3495E+01
  -7.988  0.3883E+00  0.3499E+01
  -7.978  0.3889E+00  0.3503E+01
  -7.968  0.3896E+00  0.3507E+01
  -7.958  0.3903E+00  0.3511E+01
  -7.948  0.3910E+00  0.3515E+01
  -7.938  0.3916E+00  0.3519E+01
  -7.928  0.3923E+00  0.3523E+01
  -7.918  0.3930E+00  0.3527E+01
  -7.908  0.3937E+00  0.3531E+01
  -7.898  0.3943E+00  0.3535E+01
  -7.888  0.3950E+00  0.3539E+01
  -7.878  0.3957E+00  0.3543E+01
  -7.868  0.3964E+00  0.3546E+01
  -7.858  0.3971E+00  0.3550E+01
  -7.848  0.3977E+00  0.3554E+01
  -7.838  0.3984E+00  0.3558E+01
  -7.828  0.3991E+00  0.3562E+01
  -7.818  0.3998E+00  0.3566E+01
  -7.808  0.4004E+00  0.3570E+01
  -7.798  0.4011E+00  0.3574E+01
  -7.788  0.4018E+00  0.3578E+01
  -7.778  0.4025E+00  0.3582E+01
  -7.768  0.4031E+00  0.3587E+01
  -7.758  0.4038E+00  0.3591E+01
  -7.748  0.4045E+00  0.3595E+01
  -7.738  0.4052E+00  0.3599E+01
  -7.728  0.4058E+00  0.3603E+01
  -7.718  0.4065E+00  0.3607E+01
  -7.708  0.4072E+00  0.3611E+01
  -7.698  0.4079E+00  0.3615E+01
  -7.688  0.4085E+00  0.3619E+01
  -7.678  0.4092E+00  0.3623E+01
  -7.668  0.4099E+00  0.3627E+01
  -7.658  0.4106E+00  0.3631E+01
  -7.648  0.4113E+00  0.3635E+01
  -7.638  0.4119E+00  0.3640E+01
  -7.628  0.4125E+00  0.3644E+01
  -7.618  0.4128E+00  0.3648E+01
  -7.608  0.4132E+00  0.3652E+01
  -7.598  0.4135E+00  0.3656E+01
  -7.588  0.4139E+00  0.3660E+01
  -7.578  0.4142E+00  0.3664E+01
  -7.568  0.4146E+00  0.3668E+01
  -7.558  0.4149E+00  0.3673E+01
  -7.548  0.4153E+00  0.3677E+01
  -7.538  0.4156E+00  0.3681E+01
  -7.528  0.4160E+00  0.3685E+01
  -7.518  0.4163E+00  0.3689E+01
  -7.508  0.4167E+00  0.3693E+01
  -7.498  0.4170E+00  0.3698E+01
  -7.488  0.4174E+00  0.3702E+01
  -7.478  0.4177E+00  0.3706E+01
  -7.468  0.4181E+00  0.3710E+01
  -7.458  0.4184E+00  0.3714E+01
  -7.448  0.4188E+00  0.3718E+01
  -7.438  0.4191E+00  0.3723E+01
  -7.428  0.4195E+00  0.3727E+01
  -7.418  0.4198E+00  0.3731E+01
  -7.408  0.4202E+00  0.3735E+01
  -7.398  0.4205E+00  0.3739E+01
  -7.388  0.4209E+00  0.3744E+01
  -7.378  0.4212E+00  0.3748E+01
  -7.368  0.4216E+00  0.3752E+01
  -7.358  0.4230E+00  0.3756E+01
  -7.348  0.4247E+00  0.3761E+01
  -7.338  0.4263E+00  0.3765E+01
  -7.328  0.4280E+00  0.3769E+01
  -7.318  0.4297E+00  0.3773E+01
  -7.308  0.4314E+00  0.3778E+01
  -7.298  0.4330E+00  0.3782E+01
  -7.288  0.4347E+00  0.3786E+01
  -7.278  0.4364E+00  0.3791E+01
  -7.268  0.4381E+00  0.3795E+01
  -7.258  0.4397E+00  0.3800E+01
  -7.248  0.4414E+00  0.3804E+01
  -7.238  0.4431E+00  0.3808E+01
  -7.228  0.4448E+00  0.3813E+01
  -7.218  0.4464E+00  0.3817E+01
  -7.208  0.4481E+00  0.3822E+01
  -7.198  0.4498E+00  0.3826E+01
  -7.188  0.4515E+00  0.3831E+01
  -7.178  0.4525E+00  0.3835E+01
  -7.168  0.4528E+00  0.3840E+01
  -7.158  0.4531E+00  0.3844E+01
  -7.148  0.4534E+00  0.3849E+01
  -7.138  0.4537E+00  0.3853E+01
  -7.128  0.4540E+00  0.3858E+01
  -7.118  0.4543E+00  0.3863E+01
  -7.108  0.4546E+00  0.3867E+01
  -7.098  0.4549E+00  0.3872E+01
  -7.088  0.4552E+00  0.3876E+01
  -7.078  0.4555E+00  0.3881E+01
  -7.068  0.4558E+00  0.3885E+01
  -7.058  0.4562E+00  0.3890E+01
  -7.048  0.4565E+00  0.3894E+01
  -7.038  0.4568E+00  0.3899E+01
  -7.028  0.4571E+00  0.3904E+01
  -7.018  0.4574E+00  0.3908E+01
  -7.008  0.4577E+00  0.3913E+01
  -6.998  0.4580E+00  0.3917E+01
  -6.988  0.4583E+00  0.3922E+01
  -6.978  0.4586E+00  0.3926E+01
  -6.968  0.4589E+00  0.3931E+01
  -6.958  0.4592E+00  0.3936E+01
  -6.948  0.4595E+00  0.3940E+01
  -6.938  0.4598E+00  0.3945E+01
  -6.928  0.4601E+00  0.3949E+01
  -6.918  0.4604E+00  0.3954E+01
  -6.908  0.4607E+00  0.3959E+01
  -6.898  0.4610E+00  0.3963E+01
  -6.888  0.4614E+00  0.3968E+01
  -6.878  0.4621E+00  0.3973E+01
  -6.868  0.4627E+00  0.3977E+01
  -6.858  0.4634E+00  0.3982E+01
  -6.848  0.4641E+00  0.3986E+01
  -6.838  0.4647E+00  0.3991E+01
  -6.828  0.4654E+00  0.3996E+01
  -6.818  0.4660E+00  0.4000E+01
  -6.808  0.4667E+00  0.4005E+01
  -6.798  0.4673E+00  0.4010E+01
  -6.788  0.4680E+00  0.4014E+01
  -6.778  0.4686E+00  0.4019E+01
  -6.768  0.4693E+00  0.4024E+01
  -6.758  0.4699E+00  0.4028E+01
  -6.748  0.4706E+00  0.4033E+01
  -6.738  0.4713E+00  0.4038E+01
  -6.728  0.4719E+00  0.4043E+01
  -6.718  0.4802E+00  0.4047E+01
  -6.708  0.5042E+00  0.4052E+01
  -6.698  0.5283E+00  0.4058E+01
  -6.688  0.5523E+00  0.4063E+01
  -6.678  0.5763E+00  0.4069E+01
  -6.668  0.6003E+00  0.4075E+01
  -6.658  0.6243E+00  0.4081E+01
  -6.648  0.6484E+00  0.4088E+01
  -6.638  0.6724E+00  0.4094E+01
  -6.628  0.6964E+00  0.4101E+01
  -6.618  0.7204E+00  0.4109E+01
  -6.608  0.7444E+00  0.4116E+01
  -6.598  0.7916E+00  0.4124E+01
  -6.588  0.8155E+00  0.4132E+01
  -6.578  0.8394E+00  0.4141E+01
  -6.568  0.8632E+00  0.4149E+01
  -6.558  0.8871E+00  0.4158E+01
  -6.548  0.9121E+00  0.4167E+01
  -6.538  0.9379E+00  0.4177E+01
  -6.528  0.7293E+00  0.4184E+01
  -6.518  0.7335E+00  0.4191E+01
  -6.508  0.7377E+00  0.4199E+01
  -6.498  0.7420E+00  0.4206E+01
  -6.488  0.7462E+00  0.4213E+01
  -6.478  0.7504E+00  0.4221E+01
  -6.468  0.7547E+00  0.4228E+01
  -6.458  0.7589E+00  0.4236E+01
  -6.448  0.7631E+00  0.4244E+01
  -6.438  0.7674E+00  0.4251E+01
  -6.428  0.7716E+00  0.4259E+01
  -6.418  0.7758E+00  0.4267E+01
  -6.408  0.7801E+00  0.4275E+01
  -6.398  0.7843E+00  0.4283E+01
  -6.388  0.7885E+00  0.4290E+01
  -6.378  0.7928E+00  0.4298E+01
  -6.368  0.7970E+00  0.4306E+01
  -6.358  0.8012E+00  0.4314E+01
  -6.348  0.8055E+00  0.4322E+01
  -6.338  0.8097E+00  0.4330E+01
  -6.328  0.8139E+00  0.4339E+01
  -6.318  0.8181E+00  0.4347E+01
  -6.308  0.8224E+00  0.4355E+01
  -6.298  0.8266E+00  0.4363E+01
  -6.288  0.8308E+00  0.4372E+01
  -6.278  0.8351E+00  0.4380E+01
  -6.268  0.8393E+00  0.4388E+01
  -6.258  0.8435E+00  0.4397E+01
  -6.248  0.8478E+00  0.4405E+01
  -6.238  0.8520E+00  0.4414E+01
  -6.228  0.8562E+00  0.4422E+01
  -6.218  0.8605E+00  0.4431E+01
  -6.208  0.8647E+00  0.4440E+01
  -6.198  0.8689E+00  0.4448E+01
  -6.188  0.8732E+00  0.4457E+01
  -6.178  0.8774E+00  0.4466E+01
  -6.168  0.8816E+00  0.4475E+01
  -6.158  0.8859E+00  0.4483E+01
  -6.148  0.8901E+00  0.4492E+01
  -6.138  0.8949E+00  0.4501E+01
  -6.128  0.8998E+00  0.4510E+01
  -6.118  0.9046E+00  0.4519E+01
  -6.108  0.9095E+00  0.4528E+01
  -6.098  0.9143E+00  0.4538E+01
  -6.088  0.9192E+00  0.4547E+01
  -6.078  0.9240E+00  0.4556E+01
  -6.068  0.9289E+00  0.4565E+01
  -6.058  0.9337E+00  0.4575E+01
  -6.048  0.9386E+00  0.4584E+01
  -6.038  0.9434E+00  0.4593E+01
  -6.028  0.1060E+01  0.4604E+01
  -6.018  0.1071E+01  0.4615E+01
  -6.008  0.1082E+01  0.4626E+01
  -5.998  0.1092E+01  0.4636E+01
  -5.988  0.1103E+01  0.4648E+01
  -5.978  0.1114E+01  0.4659E+01
  -5.968  0.1125E+01  0.4670E+01
  -5.958  0.1135E+01  0.4681E+01
  -5.948  0.1144E+01  0.4693E+01
  -5.938  0.1140E+01  0.4704E+01
  -5.928  0.1136E+01  0.4715E+01
  -5.918  0.1133E+01  0.4727E+01
  -5.908  0.1129E+01  0.4738E+01
  -5.898  0.1125E+01  0.4749E+01
  -5.888  0.1121E+01  0.4761E+01
  -5.878  0.1118E+01  0.4772E+01
  -5.868  0.1114E+01  0.4783E+01
  -5.858  0.1110E+01  0.4794E+01
  -5.848  0.1106E+01  0.4805E+01
  -5.838  0.1102E+01  0.4816E+01
  -5.828  0.1099E+01  0.4827E+01
  -5.818  0.1095E+01  0.4838E+01
  -5.808  0.1091E+01  0.4849E+01
  -5.798  0.1087E+01  0.4860E+01
  -5.788  0.1083E+01  0.4871E+01
  -5.778  0.1080E+01  0.4881E+01
  -5.768  0.1076E+01  0.4892E+01
  -5.758  0.1072E+01  0.4903E+01
  -5.748  0.1068E+01  0.4914E+01
  -5.738  0.1065E+01  0.4924E+01
  -5.728  0.1061E+01  0.4935E+01
  -5.718  0.1057E+01  0.4945E+01
  -5.708  0.1053E+01  0.4956E+01
  -5.698  0.1048E+01  0.4966E+01
  -5.688  0.1040E+01  0.4977E+01
  -5.678  0.1032E+01  0.4987E+01
  -5.668  0.1024E+01  0.4997E+01
  -5.658  0.1016E+01  0.5007E+01
  -5.648  0.1008E+01  0.5018E+01
  -5.638  0.9997E+00  0.5028E+01
  -5.628  0.9917E+00  0.5037E+01
  -5.618  0.9837E+00  0.5047E+01
  -5.608  0.9757E+00  0.5057E+01
  -5.598  0.9677E+00  0.5067E+01
  -5.588  0.9597E+00  0.5076E+01
  -5.578  0.9517E+00  0.5086E+01
  -5.568  0.9437E+00  0.5095E+01
  -5.558  0.7358E+00  0.5103E+01
  -5.548  0.7523E+00  0.5110E+01
  -5.538  0.7831E+00  0.5118E+01
  -5.528  0.8127E+00  0.5126E+01
  -5.518  0.8423E+00  0.5135E+01
  -5.508  0.8720E+00  0.5143E+01
  -5.498  0.9016E+00  0.5152E+01
  -5.488  0.9312E+00  0.5162E+01
  -5.478  0.9609E+00  0.5171E+01
  -5.468  0.9905E+00  0.5181E+01
  -5.458  0.1020E+01  0.5191E+01
  -5.448  0.1050E+01  0.5202E+01
  -5.438  0.1079E+01  0.5213E+01
  -5.428  0.1109E+01  0.5224E+01
  -5.418  0.1139E+01  0.5235E+01
  -5.408  0.1168E+01  0.5247E+01
  -5.398  0.1198E+01  0.5259E+01
  -5.388  0.1228E+01  0.5271E+01
  -5.378  0.8376E+00  0.5279E+01
  -5.368  0.8409E+00  0.5288E+01
  -5.358  0.8443E+00  0.5296E+01
  -5.348  0.8476E+00  0.5305E+01
  -5.338  0.8510E+00  0.5313E+01
  -5.328  0.8543E+00  0.5322E+01
  -5.318  0.8577E+00  0.5330E+01
  -5.308  0.8610E+00  0.5339E+01
  -5.298  0.8644E+00  0.5348E+01
  -5.288  0.8677E+00  0.5356E+01
  -5.278  0.8711E+00  0.5365E+01
  -5.268  0.8744E+00  0.5374E+01
  -5.258  0.8778E+00  0.5383E+01
  -5.248  0.8811E+00  0.5391E+01
  -5.238  0.8845E+00  0.5400E+01
  -5.228  0.8878E+00  0.5409E+01
  -5.218  0.8912E+00  0.5418E+01
  -5.208  0.8945E+00  0.5427E+01
  -5.198  0.8979E+00  0.5436E+01
  -5.188  0.9012E+00  0.5445E+01
  -5.178  0.9046E+00  0.5454E+01
  -5.168  0.9079E+00  0.5463E+01
  -5.158  0.9113E+00  0.5472E+01
  -5.148  0.9146E+00  0.5481E+01
  -5.138  0.9180E+00  0.5490E+01
  -5.128  0.9213E+00  0.5500E+01
  -5.118  0.9247E+00  0.5509E+01
  -5.108  0.9280E+00  0.5518E+01
  -5.098  0.9314E+00  0.5528E+01
  -5.088  0.9347E+00  0.5537E+01
  -5.078  0.9381E+00  0.5546E+01
  -5.068  0.9414E+00  0.5556E+01
  -5.058  0.1001E+01  0.5566E+01
  -5.048  0.1096E+01  0.5577E+01
  -5.038  0.1191E+01  0.5589E+01
  -5.028  0.1286E+01  0.5601E+01
  -5.018  0.1380E+01  0.5615E+01
  -5.008  0.1475E+01  0.5630E+01
  -4.998  0.1570E+01  0.5646E+01
  -4.988  0.1416E+01  0.5660E+01
  -4.978  0.1241E+01  0.5672E+01
  -4.968  0.1066E+01  0.5683E+01
  -4.958  0.8915E+00  0.5692E+01
  -4.948  0.7167E+00  0.5699E+01
  -4.938  0.5419E+00  0.5704E+01
  -4.928  0.3671E+00  0.5708E+01
  -4.918  0.2448E+00  0.5711E+01
  -4.908  0.2424E+00  0.5713E+01
  -4.898  0.2399E+00  0.5715E+01
  -4.888  0.2375E+00  0.5718E+01
  -4.878  0.2351E+00  0.5720E+01
  -4.868  0.2326E+00  0.5722E+01
  -4.858  0.2302E+00  0.5725E+01
  -4.848  0.2277E+00  0.5727E+01
  -4.838  0.2253E+00  0.5729E+01
  -4.828  0.2228E+00  0.5731E+01
  -4.818  0.2204E+00  0.5734E+01
  -4.808  0.2179E+00  0.5736E+01
  -4.798  0.2155E+00  0.5738E+01
  -4.788  0.2130E+00  0.5740E+01
  -4.778  0.2106E+00  0.5742E+01
  -4.768  0.2082E+00  0.5744E+01
  -4.758  0.2057E+00  0.5746E+01
  -4.748  0.2033E+00  0.5748E+01
  -4.738  0.2008E+00  0.5750E+01
  -4.728  0.1984E+00  0.5752E+01
  -4.718  0.1959E+00  0.5754E+01
  -4.708  0.1935E+00  0.5756E+01
  -4.698  0.1910E+00  0.5758E+01
  -4.688  0.1886E+00  0.5760E+01
  -4.678  0.1862E+00  0.5762E+01
  -4.668  0.1837E+00  0.5764E+01
  -4.658  0.1813E+00  0.5766E+01
  -4.648  0.1788E+00  0.5767E+01
  -4.638  0.1764E+00  0.5769E+01
  -4.628  0.1739E+00  0.5771E+01
  -4.618  0.1715E+00  0.5773E+01
  -4.608  0.1690E+00  0.5774E+01
  -4.598  0.1666E+00  0.5776E+01
  -4.588  0.1641E+00  0.5778E+01
  -4.578  0.1617E+00  0.5779E+01
  -4.568  0.1593E+00  0.5781E+01
  -4.558  0.1568E+00  0.5782E+01
  -4.548  0.1544E+00  0.5784E+01
  -4.538  0.1519E+00  0.5785E+01
  -4.528  0.1495E+00  0.5787E+01
  -4.518  0.1470E+00  0.5788E+01
  -4.508  0.1446E+00  0.5790E+01
  -4.498  0.1421E+00  0.5791E+01
  -4.488  0.1397E+00  0.5793E+01
  -4.478  0.1372E+00  0.5794E+01
  -4.468  0.1348E+00  0.5795E+01
  -4.458  0.1324E+00  0.5797E+01
  -4.448  0.1299E+00  0.5798E+01
  -4.438  0.1314E+00  0.5799E+01
  -4.428  0.1878E+00  0.5801E+01
  -4.418  0.2443E+00  0.5804E+01
  -4.408  0.3007E+00  0.5807E+01
  -4.398  0.3571E+00  0.5810E+01
  -4.388  0.4135E+00  0.5814E+01
  -4.378  0.4699E+00  0.5819E+01
  -4.368  0.5263E+00  0.5824E+01
  -4.358  0.5827E+00  0.5830E+01
  -4.348  0.6391E+00  0.5837E+01
  -4.338  0.6955E+00  0.5844E+01
  -4.328  0.7519E+00  0.5851E+01
  -4.318  0.8083E+00  0.5859E+01
  -4.308  0.8647E+00  0.5868E+01
  -4.298  0.9211E+00  0.5877E+01
  -4.288  0.9775E+00  0.5887E+01
  -4.278  0.1034E+01  0.5897E+01
  -4.268  0.1090E+01  0.5908E+01
  -4.258  0.1147E+01  0.5919E+01
  -4.248  0.1418E+01  0.5934E+01
  -4.238  0.1697E+01  0.5951E+01
  -4.228  0.1976E+01  0.5970E+01
  -4.218  0.2255E+01  0.5993E+01
  -4.208  0.2534E+01  0.6018E+01
  -4.198  0.2813E+01  0.6046E+01
  -4.188  0.3092E+01  0.6077E+01
  -4.178  0.8619E+00  0.6086E+01
  -4.168  0.8562E+00  0.6094E+01
  -4.158  0.8505E+00  0.6103E+01
  -4.148  0.8448E+00  0.6111E+01
  -4.138  0.8391E+00  0.6120E+01
  -4.128  0.8334E+00  0.6128E+01
  -4.118  0.8276E+00  0.6136E+01
  -4.108  0.8219E+00  0.6145E+01
  -4.098  0.8162E+00  0.6153E+01
  -4.088  0.8105E+00  0.6161E+01
  -4.078  0.8048E+00  0.6169E+01
  -4.068  0.7991E+00  0.6177E+01
  -4.058  0.7934E+00  0.6185E+01
  -4.048  0.7877E+00  0.6193E+01
  -4.038  0.7819E+00  0.6201E+01
  -4.028  0.7762E+00  0.6208E+01
  -4.018  0.7705E+00  0.6216E+01
  -4.008  0.7648E+00  0.6224E+01
  -3.998  0.7591E+00  0.6231E+01
  -3.988  0.7534E+00  0.6239E+01
  -3.978  0.7477E+00  0.6246E+01
  -3.968  0.7419E+00  0.6254E+01
  -3.958  0.7362E+00  0.6261E+01
  -3.948  0.7305E+00  0.6268E+01
  -3.938  0.7248E+00  0.6276E+01
  -3.928  0.7191E+00  0.6283E+01
  -3.918  0.7134E+00  0.6290E+01
  -3.908  0.7077E+00  0.6297E+01
  -3.898  0.7019E+00  0.6304E+01
  -3.888  0.6962E+00  0.6311E+01
  -3.878  0.6905E+00  0.6318E+01
  -3.868  0.6848E+00  0.6325E+01
  -3.858  0.6791E+00  0.6332E+01
  -3.848  0.6734E+00  0.6338E+01
  -3.838  0.6678E+00  0.6345E+01
  -3.828  0.6623E+00  0.6352E+01
  -3.818  0.6568E+00  0.6358E+01
  -3.808  0.6514E+00  0.6365E+01
  -3.798  0.6459E+00  0.6371E+01
  -3.788  0.6404E+00  0.6378E+01
  -3.778  0.6350E+00  0.6384E+01
  -3.768  0.6295E+00  0.6390E+01
  -3.758  0.6240E+00  0.6396E+01
  -3.748  0.6186E+00  0.6403E+01
  -3.738  0.6131E+00  0.6409E+01
  -3.728  0.6076E+00  0.6415E+01
  -3.718  0.6065E+00  0.6421E+01
  -3.708  0.6055E+00  0.6427E+01
  -3.698  0.6046E+00  0.6433E+01
  -3.688  0.6037E+00  0.6439E+01
  -3.678  0.6028E+00  0.6445E+01
  -3.668  0.6019E+00  0.6451E+01
  -3.658  0.6009E+00  0.6457E+01
  -3.648  0.6000E+00  0.6463E+01
  -3.638  0.5991E+00  0.6469E+01
  -3.628  0.5982E+00  0.6475E+01
  -3.618  0.5973E+00  0.6481E+01
  -3.608  0.5963E+00  0.6487E+01
  -3.598  0.5954E+00  0.6493E+01
  -3.588  0.5945E+00  0.6499E+01
  -3.578  0.5936E+00  0.6505E+01
  -3.568  0.5927E+00  0.6511E+01
  -3.558  0.5917E+00  0.6517E+01
  -3.548  0.5908E+00  0.6523E+01
  -3.538  0.5899E+00  0.6528E+01
  -3.528  0.5890E+00  0.6534E+01
  -3.518  0.5881E+00  0.6540E+01
  -3.508  0.5871E+00  0.6546E+01
  -3.498  0.5862E+00  0.6552E+01
  -3.488  0.5853E+00  0.6558E+01
  -3.478  0.5844E+00  0.6564E+01
  -3.468  0.5835E+00  0.6570E+01
  -3.458  0.5825E+00  0.6575E+01
  -3.448  0.5816E+00  0.6581E+01
  -3.438  0.5807E+00  0.6587E+01
  -3.428  0.5798E+00  0.6593E+01
  -3.418  0.5789E+00  0.6599E+01
  -3.408  0.5779E+00  0.6604E+01
  -3.398  0.5770E+00  0.6610E+01
  -3.388  0.5761E+00  0.6616E+01
  -3.378  0.5752E+00  0.6622E+01
  -3.368  0.5743E+00  0.6627E+01
  -3.358  0.5733E+00  0.6633E+01
  -3.348  0.5724E+00  0.6639E+01
  -3.338  0.5715E+00  0.6645E+01
  -3.328  0.5706E+00  0.6650E+01
  -3.318  0.5697E+00  0.6656E+01
  -3.308  0.5687E+00  0.6662E+01
  -3.298  0.5687E+00  0.6667E+01
  -3.288  0.5715E+00  0.6673E+01
  -3.278  0.5743E+00  0.6679E+01
  -3.268  0.5771E+00  0.6685E+01
  -3.258  0.5799E+00  0.6690E+01
  -3.248  0.5827E+00  0.6696E+01
  -3.238  0.5855E+00  0.6702E+01
  -3.228  0.5883E+00  0.6708E+01
  -3.218  0.5911E+00  0.6714E+01
  -3.208  0.5939E+00  0.6720E+01
  -3.198  0.5967E+00  0.6726E+01
  -3.188  0.5994E+00  0.6732E+01
  -3.178  0.5947E+00  0.6738E+01
  -3.168  0.5935E+00  0.6744E+01
  -3.158  0.5922E+00  0.6750E+01
  -3.148  0.5910E+00  0.6755E+01
  -3.138  0.5898E+00  0.6761E+01
  -3.128  0.5885E+00  0.6767E+01
  -3.118  0.5873E+00  0.6773E+01
  -3.108  0.5861E+00  0.6779E+01
  -3.098  0.5849E+00  0.6785E+01
  -3.088  0.5836E+00  0.6791E+01
  -3.078  0.5824E+00  0.6796E+01
  -3.068  0.5812E+00  0.6802E+01
  -3.058  0.5799E+00  0.6808E+01
  -3.048  0.5787E+00  0.6814E+01
  -3.038  0.5775E+00  0.6820E+01
  -3.028  0.5763E+00  0.6825E+01
  -3.018  0.5750E+00  0.6831E+01
  -3.008  0.5738E+00  0.6837E+01
  -2.998  0.5726E+00  0.6843E+01
  -2.988  0.5713E+00  0.6848E+01
  -2.978  0.5701E+00  0.6854E+01
  -2.968  0.5689E+00  0.6860E+01
  -2.958  0.5677E+00  0.6865E+01
  -2.948  0.5664E+00  0.6871E+01
  -2.938  0.5652E+00  0.6877E+01
  -2.928  0.5640E+00  0.6882E+01
  -2.918  0.5627E+00  0.6888E+01
  -2.908  0.5615E+00  0.6894E+01
  -2.898  0.5603E+00  0.6899E+01
  -2.888  0.5591E+00  0.6905E+01
  -2.878  0.5578E+00  0.6910E+01
  -2.868  0.5569E+00  0.6916E+01
  -2.858  0.5561E+00  0.6921E+01
  -2.848  0.5553E+00  0.6927E+01
  -2.838  0.5545E+00  0.6933E+01
  -2.828  0.5537E+00  0.6938E+01
  -2.818  0.5944E+00  0.6944E+01
  -2.808  0.5919E+00  0.6950E+01
  -2.798  0.5895E+00  0.6956E+01
  -2.788  0.5871E+00  0.6962E+01
  -2.778  0.5847E+00  0.6968E+01
  -2.768  0.5822E+00  0.6973E+01
  -2.758  0.5798E+00  0.6979E+01
  -2.748  0.5774E+00  0.6985E+01
  -2.738  0.5749E+00  0.6991E+01
  -2.728  0.5725E+00  0.6996E+01
  -2.718  0.5701E+00  0.7002E+01
  -2.708  0.5676E+00  0.7008E+01
  -2.698  0.5652E+00  0.7013E+01
  -2.688  0.5628E+00  0.7019E+01
  -2.678  0.5604E+00  0.7025E+01
  -2.668  0.5579E+00  0.7030E+01
  -2.658  0.5555E+00  0.7036E+01
  -2.648  0.5531E+00  0.7041E+01
  -2.638  0.5506E+00  0.7047E+01
  -2.628  0.5482E+00  0.7052E+01
  -2.618  0.5458E+00  0.7058E+01
  -2.608  0.5433E+00  0.7063E+01
  -2.598  0.5409E+00  0.7069E+01
  -2.588  0.5385E+00  0.7074E+01
  -2.578  0.5361E+00  0.7079E+01
  -2.568  0.5336E+00  0.7085E+01
  -2.558  0.5312E+00  0.7090E+01
  -2.548  0.5288E+00  0.7095E+01
  -2.538  0.5263E+00  0.7101E+01
  -2.528  0.5239E+00  0.7106E+01
  -2.518  0.5215E+00  0.7111E+01
  -2.508  0.5191E+00  0.7116E+01
  -2.498  0.5166E+00  0.7121E+01
  -2.488  0.6331E+00  0.7128E+01
  -2.478  0.6249E+00  0.7134E+01
  -2.468  0.6166E+00  0.7140E+01
  -2.458  0.6084E+00  0.7146E+01
  -2.448  0.6001E+00  0.7152E+01
  -2.438  0.5918E+00  0.7158E+01
  -2.428  0.5836E+00  0.7164E+01
  -2.418  0.5753E+00  0.7170E+01
  -2.408  0.5670E+00  0.7175E+01
  -2.398  0.5588E+00  0.7181E+01
  -2.388  0.5505E+00  0.7187E+01
  -2.378  0.5422E+00  0.7192E+01
  -2.368  0.5340E+00  0.7197E+01
  -2.358  0.5257E+00  0.7203E+01
  -2.348  0.5175E+00  0.7208E+01
  -2.338  0.5092E+00  0.7213E+01
  -2.328  0.5009E+00  0.7218E+01
  -2.318  0.4927E+00  0.7223E+01
  -2.308  0.4844E+00  0.7228E+01
  -2.298  0.4761E+00  0.7232E+01
  -2.288  0.4681E+00  0.7237E+01
  -2.278  0.4606E+00  0.7242E+01
  -2.268  0.4531E+00  0.7246E+01
  -2.258  0.4457E+00  0.7251E+01
  -2.248  0.4382E+00  0.7255E+01
  -2.238  0.4307E+00  0.7259E+01
  -2.228  0.4232E+00  0.7264E+01
  -2.218  0.4157E+00  0.7268E+01
  -2.208  0.4083E+00  0.7272E+01
  -2.198  0.4008E+00  0.7276E+01
  -2.188  0.3933E+00  0.7280E+01
  -2.178  0.3858E+00  0.7284E+01
  -2.168  0.3783E+00  0.7287E+01
  -2.158  0.3708E+00  0.7291E+01
  -2.148  0.3662E+00  0.7295E+01
  -2.138  0.3676E+00  0.7298E+01
  -2.128  0.3691E+00  0.7302E+01
  -2.118  0.3705E+00  0.7306E+01
  -2.108  0.3720E+00  0.7310E+01
  -2.098  0.3734E+00  0.7313E+01
  -2.088  0.3748E+00  0.7317E+01
  -2.078  0.3763E+00  0.7321E+01
  -2.068  0.3777E+00  0.7325E+01
  -2.058  0.3792E+00  0.7328E+01
  -2.048  0.3806E+00  0.7332E+01
  -2.038  0.3821E+00  0.7336E+01
  -2.028  0.3835E+00  0.7340E+01
  -2.018  0.3850E+00  0.7344E+01
  -2.008  0.3864E+00  0.7348E+01
  -1.998  0.3879E+00  0.7351E+01
  -1.988  0.3893E+00  0.7355E+01
  -1.978  0.3907E+00  0.7359E+01
  -1.968  0.3922E+00  0.7363E+01
  -1.958  0.3936E+00  0.7367E+01
  -1.948  0.3951E+00  0.7371E+01
  -1.938  0.3965E+00  0.7375E+01
  -1.928  0.3980E+00  0.7379E+01
  -1.918  0.3994E+00  0.7383E+01
  -1.908  0.4009E+00  0.7387E+01
  -1.898  0.4023E+00  0.7391E+01
  -1.888  0.4038E+00  0.7395E+01
  -1.878  0.4052E+00  0.7399E+01
  -1.868  0.4066E+00  0.7403E+01
  -1.858  0.4081E+00  0.7407E+01
  -1.848  0.4095E+00  0.7411E+01
  -1.838  0.4110E+00  0.7415E+01
  -1.828  0.4127E+00  0.7420E+01
  -1.818  0.4146E+00  0.7424E+01
  -1.808  0.4165E+00  0.7428E+01
  -1.798  0.4183E+00  0.7432E+01
  -1.788  0.4202E+00  0.7436E+01
  -1.778  0.4221E+00  0.7440E+01
  -1.768  0.4239E+00  0.7445E+01
  -1.758  0.4258E+00  0.7449E+01
  -1.748  0.4276E+00  0.7453E+01
  -1.738  0.4326E+00  0.7458E+01
  -1.728  0.4375E+00  0.7462E+01
  -1.718  0.4424E+00  0.7466E+01
  -1.708  0.4474E+00  0.7471E+01
  -1.698  0.4523E+00  0.7475E+01
  -1.688  0.4572E+00  0.7480E+01
  -1.678  0.4622E+00  0.7485E+01
  -1.668  0.4671E+00  0.7489E+01
  -1.658  0.4720E+00  0.7494E+01
  -1.648  0.4770E+00  0.7499E+01
  -1.638  0.4819E+00  0.7504E+01
  -1.628  0.4868E+00  0.7508E+01
  -1.618  0.4918E+00  0.7513E+01
  -1.608  0.4967E+00  0.7518E+01
  -1.598  0.5016E+00  0.7523E+01
  -1.588  0.5066E+00  0.7528E+01
  -1.578  0.5115E+00  0.7534E+01
  -1.568  0.5164E+00  0.7539E+01
  -1.558  0.5214E+00  0.7544E+01
  -1.548  0.1375E+01  0.7558E+01
  -1.538  0.1283E+01  0.7570E+01
  -1.528  0.1191E+01  0.7582E+01
  -1.518  0.1098E+01  0.7593E+01
  -1.508  0.1006E+01  0.7603E+01
  -1.498  0.9138E+00  0.7613E+01
  -1.488  0.8214E+00  0.7621E+01
  -1.478  0.7291E+00  0.7628E+01
  -1.468  0.6368E+00  0.7634E+01
  -1.458  0.5445E+00  0.7640E+01
  -1.448  0.4522E+00  0.7644E+01
  -1.438  0.4078E+00  0.7648E+01
  -1.428  0.4044E+00  0.7653E+01
  -1.418  0.4010E+00  0.7657E+01
  -1.408  0.3976E+00  0.7661E+01
  -1.398  0.3942E+00  0.7664E+01
  -1.388  0.3908E+00  0.7668E+01
  -1.378  0.3874E+00  0.7672E+01
  -1.368  0.3840E+00  0.7676E+01
  -1.358  0.3805E+00  0.7680E+01
  -1.348  0.3771E+00  0.7684E+01
  -1.338  0.3737E+00  0.7687E+01
  -1.328  0.3703E+00  0.7691E+01
  -1.318  0.3669E+00  0.7695E+01
  -1.308  0.3635E+00  0.7698E+01
  -1.298  0.3601E+00  0.7702E+01
  -1.288  0.3567E+00  0.7706E+01
  -1.278  0.3533E+00  0.7709E+01
  -1.268  0.3499E+00  0.7713E+01
  -1.258  0.3465E+00  0.7716E+01
  -1.248  0.3431E+00  0.7719E+01
  -1.238  0.3397E+00  0.7723E+01
  -1.228  0.3363E+00  0.7726E+01
  -1.218  0.3328E+00  0.7730E+01
  -1.208  0.3294E+00  0.7733E+01
  -1.198  0.3260E+00  0.7736E+01
  -1.188  0.3226E+00  0.7739E+01
  -1.178  0.3192E+00  0.7743E+01
  -1.168  0.3158E+00  0.7746E+01
  -1.158  0.3124E+00  0.7749E+01
  -1.148  0.3090E+00  0.7752E+01
  -1.138  0.3056E+00  0.7755E+01
  -1.128  0.3022E+00  0.7758E+01
  -1.118  0.2988E+00  0.7761E+01
  -1.108  0.2954E+00  0.7764E+01
  -1.098  0.2920E+00  0.7767E+01
  -1.088  0.2886E+00  0.7770E+01
  -1.078  0.2852E+00  0.7773E+01
  -1.068  0.2817E+00  0.7775E+01
  -1.058  0.2783E+00  0.7778E+01
  -1.048  0.2749E+00  0.7781E+01
  -1.038  0.2715E+00  0.7784E+01
  -1.028  0.2681E+00  0.7786E+01
  -1.018  0.2647E+00  0.7789E+01
  -1.008  0.2613E+00  0.7792E+01
  -0.998  0.2579E+00  0.7794E+01
  -0.988  0.2545E+00  0.7797E+01
  -0.978  0.2511E+00  0.7799E+01
  -0.968  0.2477E+00  0.7802E+01
  -0.958  0.2443E+00  0.7804E+01
  -0.948  0.2409E+00  0.7807E+01
  -0.938  0.2375E+00  0.7809E+01
  -0.928  0.2340E+00  0.7811E+01
  -0.918  0.2306E+00  0.7814E+01
  -0.908  0.2272E+00  0.7816E+01
  -0.898  0.2238E+00  0.7818E+01
  -0.888  0.2204E+00  0.7820E+01
  -0.878  0.2170E+00  0.7822E+01
  -0.868  0.2136E+00  0.7825E+01
  -0.858  0.2102E+00  0.7827E+01
  -0.848  0.2081E+00  0.7829E+01
  -0.838  0.2095E+00  0.7831E+01
  -0.828  0.2109E+00  0.7833E+01
  -0.818  0.2123E+00  0.7835E+01
  -0.808  0.2138E+00  0.7837E+01
  -0.798  0.2152E+00  0.7839E+01
  -0.788  0.2166E+00  0.7842E+01
  -0.778  0.2180E+00  0.7844E+01
  -0.768  0.2194E+00  0.7846E+01
  -0.758  0.2209E+00  0.7848E+01
  -0.748  0.2223E+00  0.7850E+01
  -0.738  0.2237E+00  0.7853E+01
  -0.728  0.2251E+00  0.7855E+01
  -0.718  0.2265E+00  0.7857E+01
  -0.708  0.2280E+00  0.7859E+01
  -0.698  0.2294E+00  0.7862E+01
  -0.688  0.2308E+00  0.7864E+01
  -0.678  0.2322E+00  0.7866E+01
  -0.668  0.2336E+00  0.7869E+01
  -0.658  0.2351E+00  0.7871E+01
  -0.648  0.2365E+00  0.7873E+01
  -0.638  0.2379E+00  0.7876E+01
  -0.628  0.2393E+00  0.7878E+01
  -0.618  0.2408E+00  0.7881E+01
  -0.608  0.2422E+00  0.7883E+01
  -0.598  0.2436E+00  0.7885E+01
  -0.588  0.2450E+00  0.7888E+01
  -0.578  0.2464E+00  0.7890E+01
  -0.568  0.2479E+00  0.7893E+01
  -0.558  0.2493E+00  0.7895E+01
  -0.548  0.2507E+00  0.7898E+01
  -0.538  0.2521E+00  0.7900E+01
  -0.528  0.2535E+00  0.7903E+01
  -0.518  0.2550E+00  0.7905E+01
  -0.508  0.2564E+00  0.7908E+01
  -0.498  0.2578E+00  0.7911E+01
  -0.488  0.2592E+00  0.7913E+01
  -0.478  0.2606E+00  0.7916E+01
  -0.468  0.2621E+00  0.7918E+01
  -0.458  0.2635E+00  0.7921E+01
  -0.448  0.2649E+00  0.7924E+01
  -0.438  0.1215E+00  0.7925E+01
  -0.428  0.1206E+00  0.7926E+01
  -0.418  0.1197E+00  0.7927E+01
  -0.408  0.1188E+00  0.7928E+01
  -0.398  0.1179E+00  0.7930E+01
  -0.388  0.1170E+00  0.7931E+01
  -0.378  0.1161E+00  0.7932E+01
  -0.368  0.1152E+00  0.7933E+01
  -0.358  0.1143E+00  0.7934E+01
  -0.348  0.1134E+00  0.7935E+01
  -0.338  0.1125E+00  0.7937E+01
  -0.328  0.1116E+00  0.7938E+01
  -0.318  0.1107E+00  0.7939E+01
  -0.308  0.1098E+00  0.7940E+01
  -0.298  0.1089E+00  0.7941E+01
  -0.288  0.1080E+00  0.7942E+01
  -0.278  0.1072E+00  0.7943E+01
  -0.268  0.1063E+00  0.7944E+01
  -0.258  0.1054E+00  0.7945E+01
  -0.248  0.1045E+00  0.7946E+01
  -0.238  0.1036E+00  0.7947E+01
  -0.228  0.1027E+00  0.7948E+01
  -0.218  0.1018E+00  0.7949E+01
  -0.208  0.1009E+00  0.7950E+01
  -0.198  0.1000E+00  0.7951E+01
  -0.188  0.9911E-01  0.7952E+01
  -0.178  0.9821E-01  0.7953E+01
  -0.168  0.9732E-01  0.7954E+01
  -0.158  0.9642E-01  0.7955E+01
  -0.148  0.9553E-01  0.7956E+01
  -0.138  0.9463E-01  0.7957E+01
  -0.128  0.9374E-01  0.7958E+01
  -0.118  0.9285E-01  0.7959E+01
  -0.108  0.9195E-01  0.7960E+01
  -0.098  0.9106E-01  0.7961E+01
  -0.088  0.9016E-01  0.7962E+01
  -0.078  0.8927E-01  0.7963E+01
  -0.068  0.8838E-01  0.7964E+01
  -0.058  0.8748E-01  0.7964E+01
  -0.048  0.8659E-01  0.7965E+01
  -0.038  0.8569E-01  0.7966E+01
  -0.028  0.8480E-01  0.7967E+01
  -0.018  0.8390E-01  0.7968E+01
  -0.008  0.8301E-01  0.7969E+01
   0.002  0.8212E-01  0.7969E+01
   0.012  0.8122E-01  0.7970E+01
   0.022  0.8033E-01  0.7971E+01
   0.032  0.7943E-01  0.7972E+01
   0.042  0.7854E-01  0.7973E+01
   0.052  0.7764E-01  0.7973E+01
   0.062  0.7675E-01  0.7974E+01
   0.072  0.7586E-01  0.7975E+01
   0.082  0.7496E-01  0.7976E+01
   0.092  0.7407E-01  0.7976E+01
   0.102  0.7317E-01  0.7977E+01
   0.112  0.7228E-01  0.7978E+01
   0.122  0.7139E-01  0.7979E+01
   0.132  0.7049E-01  0.7979E+01
   0.142  0.6960E-01  0.7980E+01
   0.152  0.6870E-01  0.7981E+01
   0.162  0.6781E-01  0.7981E+01
   0.172  0.6691E-01  0.7982E+01
   0.182  0.6602E-01  0.7983E+01
   0.192  0.6513E-01  0.7983E+01
   0.202  0.6423E-01  0.7984E+01
   0.212  0.6334E-01  0.7985E+01
   0.222  0.6244E-01  0.7985E+01
   0.232  0.6155E-01  0.7986E+01
   0.242  0.6065E-01  0.7986E+01
   0.252  0.5976E-01  0.7987E+01
   0.262  0.5887E-01  0.7988E+01
   0.272  0.5797E-01  0.7988E+01
   0.282  0.5708E-01  0.7989E+01
   0.292  0.5618E-01  0.7989E+01
   0.302  0.5529E-01  0.7990E+01
   0.312  0.5439E-01  0.7990E+01
   0.322  0.5350E-01  0.7991E+01
   0.332  0.5261E-01  0.7992E+01
   0.342  0.5171E-01  0.7992E+01
   0.352  0.5082E-01  0.7993E+01
   0.362  0.4992E-01  0.7993E+01
   0.372  0.4903E-01  0.7994E+01
   0.382  0.4814E-01  0.7994E+01
   0.392  0.4724E-01  0.7995E+01
   0.402  0.4635E-01  0.7995E+01
   0.412  0.4545E-01  0.7995E+01
   0.422  0.4456E-01  0.7996E+01
   0.432  0.4366E-01  0.7996E+01
   0.442  0.4277E-01  0.7997E+01
   0.452  0.4188E-01  0.7997E+01
   0.462  0.4098E-01  0.7998E+01
   0.472  0.4009E-01  0.7998E+01
   0.482  0.3919E-01  0.7998E+01
   0.492  0.3830E-01  0.7999E+01
   0.502  0.3740E-01  0.7999E+01
   0.512  0.3651E-01  0.7999E+01
   0.522  0.3562E-01  0.8000E+01
   0.532  0.3472E-01  0.8000E+01
   0.542  0.3383E-01  0.8001E+01
   0.552  0.3293E-01  0.8001E+01
   0.562  0.3204E-01  0.8001E+01
   0.572  0.3115E-01  0.8001E+01
   0.582  0.3025E-01  0.8002E+01
   0.592  0.2936E-01  0.8002E+01
   0.602  0.2846E-01  0.8002E+01
   0.612  0.2757E-01  0.8003E+01
   0.622  0.2667E-01  0.8003E+01
   0.632  0.2578E-01  0.8003E+01
   0.642  0.2489E-01  0.8003E+01
   0.652  0.2399E-01  0.8004E+01
   0.662  0.2310E-01  0.8004E+01
   0.672  0.2220E-01  0.8004E+01
   0.682  0.2131E-01  0.8004E+01
   0.692  0.2041E-01  0.8005E+01
   0.702  0.1952E-01  0.8005E+01
   0.712  0.1863E-01  0.8005E+01
   0.722  0.1773E-01  0.8005E+01
   0.732  0.1684E-01  0.8005E+01
   0.742  0.1594E-01  0.8005E+01
   0.752  0.1505E-01  0.8006E+01
   0.762  0.1415E-01  0.8006E+01
   0.772  0.1326E-01  0.8006E+01
   0.782  0.1237E-01  0.8006E+01
   0.792  0.1147E-01  0.8006E+01
   0.802  0.1058E-01  0.8006E+01
   0.812  0.9684E-02  0.8006E+01
   0.822  0.8790E-02  0.8006E+01
   0.832  0.7895E-02  0.8006E+01
   0.842  0.7001E-02  0.8007E+01
   0.852  0.6107E-02  0.8007E+01
   0.862  0.5213E-02  0.8007E+01
   0.872  0.4319E-02  0.8007E+01
   0.882  0.3424E-02  0.8007E+01
   0.892  0.2530E-02  0.8007E+01
   0.902  0.1636E-02  0.8007E+01
   0.912  0.7417E-03  0.8007E+01
   0.922  0.1699E-03  0.8007E+01
   0.932  0.1167E-02  0.8007E+01
   0.942  0.2164E-02  0.8007E+01
   0.952  0.3161E-02  0.8007E+01
   0.962  0.4158E-02  0.8007E+01
   0.972  0.5155E-02  0.8007E+01
   0.982  0.6152E-02  0.8007E+01
   0.992  0.7149E-02  0.8007E+01
   1.002  0.8146E-02  0.8007E+01
   1.012  0.9143E-02  0.8007E+01
   1.022  0.1014E-01  0.8007E+01
   1.032  0.1114E-01  0.8007E+01
   1.042  0.1213E-01  0.8008E+01
   1.052  0.1313E-01  0.8008E+01
   1.062  0.1413E-01  0.8008E+01
   1.072  0.1512E-01  0.8008E+01
   1.082  0.1612E-01  0.8008E+01
   1.092  0.1712E-01  0.8008E+01
   1.102  0.1812E-01  0.8009E+01
   1.112  0.1911E-01  0.8009E+01
   1.122  0.2011E-01  0.8009E+01
   1.132  0.2111E-01  0.8009E+01
   1.142  0.2210E-01  0.8009E+01
   1.152  0.2310E-01  0.8010E+01
   1.162  0.2410E-01  0.8010E+01
   1.172  0.2509E-01  0.8010E+01
   1.182  0.2609E-01  0.8010E+01
   1.192  0.2709E-01  0.8011E+01
   1.202  0.2808E-01  0.8011E+01
   1.212  0.2908E-01  0.8011E+01
   1.222  0.3008E-01  0.8011E+01
   1.232  0.3108E-01  0.8012E+01
   1.242  0.3207E-01  0.8012E+01
   1.252  0.3307E-01  0.8012E+01
   1.262  0.3407E-01  0.8013E+01
   1.272  0.3506E-01  0.8013E+01
   1.282  0.3606E-01  0.8013E+01
   1.292  0.3706E-01  0.8014E+01
   1.302  0.3805E-01  0.8014E+01
   1.312  0.3905E-01  0.8015E+01
   1.322  0.4005E-01  0.8015E+01
   1.332  0.4105E-01  0.8015E+01
   1.342  0.4204E-01  0.8016E+01
   1.352  0.4304E-01  0.8016E+01
   1.362  0.4404E-01  0.8017E+01
   1.372  0.4503E-01  0.8017E+01
   1.382  0.4603E-01  0.8018E+01
   1.392  0.4703E-01  0.8018E+01
   1.402  0.4802E-01  0.8019E+01
   1.412  0.4902E-01  0.8019E+01
   1.422  0.5002E-01  0.8020E+01
   1.432  0.5101E-01  0.8020E+01
   1.442  0.5201E-01  0.8021E+01
   1.452  0.5301E-01  0.8021E+01
   1.462  0.5401E-01  0.8022E+01
   1.472  0.5500E-01  0.8022E+01
   1.482  0.5600E-01  0.8023E+01
   1.492  0.5700E-01  0.8023E+01
   1.502  0.5799E-01  0.8024E+01
   1.512  0.5899E-01  0.8025E+01
   1.522  0.5999E-01  0.8025E+01
   1.532  0.6098E-01  0.8026E+01
   1.542  0.6198E-01  0.8026E+01
   1.552  0.6298E-01  0.8027E+01
   1.562  0.6398E-01  0.8028E+01
   1.572  0.6497E-01  0.8028E+01
   1.582  0.6597E-01  0.8029E+01
   1.592  0.6697E-01  0.8030E+01
   1.602  0.6796E-01  0.8030E+01
   1.612  0.6896E-01  0.8031E+01
   1.622  0.6996E-01  0.8032E+01
   1.632  0.7095E-01  0.8032E+01
   1.642  0.7195E-01  0.8033E+01
   1.652  0.7295E-01  0.8034E+01
   1.662  0.7394E-01  0.8035E+01
   1.672  0.7494E-01  0.8035E+01
   1.682  0.7594E-01  0.8036E+01
   1.692  0.7694E-01  0.8037E+01
   1.702  0.7793E-01  0.8038E+01
   1.712  0.7893E-01  0.8038E+01
   1.722  0.7993E-01  0.8039E+01
   1.732  0.8092E-01  0.8040E+01
   1.742  0.8192E-01  0.8041E+01
   1.752  0.8292E-01  0.8042E+01
   1.762  0.8391E-01  0.8042E+01
   1.772  0.8491E-01  0.8043E+01
   1.782  0.8591E-01  0.8044E+01
   1.792  0.8691E-01  0.8045E+01
   1.802  0.8790E-01  0.8046E+01
   1.812  0.8890E-01  0.8047E+01
   1.822  0.8990E-01  0.8048E+01
   1.832  0.9089E-01  0.8049E+01
   1.842  0.9189E-01  0.8050E+01
   1.852  0.9289E-01  0.8050E+01
   1.862  0.9388E-01  0.8051E+01
   1.872  0.9488E-01  0.8052E+01
   1.882  0.9588E-01  0.8053E+01
   1.892  0.9687E-01  0.8054E+01
   1.902  0.9787E-01  0.8055E+01
   1.912  0.9887E-01  0.8056E+01
   1.922  0.9987E-01  0.8057E+01
   1.932  0.1009E+00  0.8058E+01
   1.942  0.1019E+00  0.8059E+01
   1.952  0.1029E+00  0.8060E+01
   1.962  0.1039E+00  0.8061E+01
   1.972  0.1049E+00  0.8062E+01
   1.982  0.1058E+00  0.8063E+01
   1.992  0.1068E+00  0.8065E+01
   2.002  0.1078E+00  0.8066E+01
   2.012  0.1088E+00  0.8067E+01
   2.022  0.1098E+00  0.8068E+01
   2.032  0.1108E+00  0.8069E+01
   2.042  0.1118E+00  0.8070E+01
   2.052  0.1128E+00  0.8071E+01
   2.062  0.1138E+00  0.8072E+01
   2.072  0.1148E+00  0.8073E+01
   2.082  0.1158E+00  0.8075E+01
   2.092  0.1168E+00  0.8076E+01
   2.102  0.1178E+00  0.8077E+01
   2.112  0.1188E+00  0.8078E+01
   2.122  0.1198E+00  0.8079E+01
   2.132  0.1208E+00  0.8081E+01
   2.142  0.1218E+00  0.8082E+01
   2.152  0.1228E+00  0.8083E+01
   2.162  0.1238E+00  0.8084E+01
   2.172  0.1248E+00  0.8085E+01
   2.182  0.1258E+00  0.8087E+01
   2.192  0.1268E+00  0.8088E+01
   2.202  0.1278E+00  0.8089E+01
   2.212  0.1288E+00  0.8091E+01
   2.222  0.5839E+00  0.8096E+01
   2.232  0.5568E+00  0.8102E+01
   2.242  0.5297E+00  0.8107E+01
   2.252  0.5026E+00  0.8112E+01
   2.262  0.4755E+00  0.8117E+01
   2.272  0.4484E+00  0.8122E+01
   2.282  0.4213E+00  0.8126E+01
   2.292  0.3942E+00  0.8130E+01
   2.302  0.3671E+00  0.8133E+01
   2.312  0.3400E+00  0.8137E+01
   2.322  0.3129E+00  0.8140E+01
   2.332  0.2858E+00  0.8143E+01
   2.342  0.2587E+00  0.8145E+01
   2.352  0.2316E+00  0.8148E+01
   2.362  0.2045E+00  0.8150E+01
   2.372  0.2037E+00  0.8152E+01
   2.382  0.2092E+00  0.8154E+01
   2.392  0.2148E+00  0.8156E+01
   2.402  0.2203E+00  0.8158E+01
   2.412  0.2259E+00  0.8160E+01
   2.422  0.2314E+00  0.8163E+01
   2.432  0.2369E+00  0.8165E+01
   2.442  0.2425E+00  0.8168E+01
   2.452  0.2480E+00  0.8170E+01
   2.462  0.2536E+00  0.8173E+01
   2.472  0.2591E+00  0.8175E+01
   2.482  0.2647E+00  0.8178E+01
   2.492  0.2702E+00  0.8181E+01
   2.502  0.2757E+00  0.8183E+01
   2.512  0.2813E+00  0.8186E+01
   2.522  0.2868E+00  0.8189E+01
   2.532  0.2924E+00  0.8192E+01
   2.542  0.2979E+00  0.8195E+01
   2.552  0.3035E+00  0.8198E+01
   2.562  0.3090E+00  0.8201E+01
   2.572  0.3145E+00  0.8204E+01
   2.582  0.3201E+00  0.8207E+01
   2.592  0.3256E+00  0.8211E+01
   2.602  0.3342E+00  0.8214E+01
   2.612  0.3565E+00  0.8217E+01
   2.622  0.3789E+00  0.8221E+01
   2.632  0.4012E+00  0.8225E+01
   2.642  0.4236E+00  0.8230E+01
   2.652  0.4460E+00  0.8234E+01
   2.662  0.4683E+00  0.8239E+01
   2.672  0.4907E+00  0.8244E+01
   2.682  0.5130E+00  0.8249E+01
   2.692  0.5354E+00  0.8254E+01
   2.702  0.5577E+00  0.8260E+01
   2.712  0.5801E+00  0.8265E+01
   2.722  0.6024E+00  0.8271E+01
   2.732  0.6248E+00  0.8278E+01
   2.742  0.6472E+00  0.8284E+01
   2.752  0.6695E+00  0.8291E+01
   2.762  0.6919E+00  0.8298E+01
   2.772  0.7142E+00  0.8305E+01
   2.782  0.7366E+00  0.8312E+01
   2.792  0.7589E+00  0.8320E+01
   2.802  0.7813E+00  0.8328E+01
   2.812  0.8036E+00  0.8336E+01
   2.822  0.8260E+00  0.8344E+01
   2.832  0.8484E+00  0.8352E+01
   2.842  0.8707E+00  0.8361E+01
   2.852  0.8931E+00  0.8370E+01
   2.862  0.9154E+00  0.8379E+01
   2.872  0.9378E+00  0.8389E+01
   2.882  0.4671E+00  0.8393E+01
   2.892  0.4646E+00  0.8398E+01
   2.902  0.4620E+00  0.8403E+01
   2.912  0.4595E+00  0.8407E+01
   2.922  0.4569E+00  0.8412E+01
   2.932  0.4544E+00  0.8416E+01
   2.942  0.4518E+00  0.8421E+01
   2.952  0.4493E+00  0.8425E+01
   2.962  0.4467E+00  0.8430E+01
   2.972  0.4442E+00  0.8434E+01
   2.982  0.4417E+00  0.8439E+01
   2.992  0.4391E+00  0.8443E+01
   3.002  0.4366E+00  0.8447E+01
   3.012  0.4340E+00  0.8452E+01
   3.022  0.4315E+00  0.8456E+01
   3.032  0.4289E+00  0.8460E+01
   3.042  0.4264E+00  0.8465E+01
   3.052  0.4238E+00  0.8469E+01
   3.062  0.4213E+00  0.8473E+01
   3.072  0.4187E+00  0.8477E+01
   3.082  0.4162E+00  0.8481E+01
   3.092  0.4136E+00  0.8486E+01
   3.102  0.4111E+00  0.8490E+01
   3.112  0.4085E+00  0.8494E+01
   3.122  0.4060E+00  0.8498E+01
   3.132  0.4034E+00  0.8502E+01
   3.142  0.4009E+00  0.8506E+01
   3.152  0.3983E+00  0.8510E+01
   3.162  0.3958E+00  0.8514E+01
   3.172  0.3932E+00  0.8518E+01
   3.182  0.3907E+00  0.8522E+01
   3.192  0.3881E+00  0.8525E+01
   3.202  0.3856E+00  0.8529E+01
   3.212  0.3830E+00  0.8533E+01
   3.222  0.3805E+00  0.8537E+01
   3.232  0.3779E+00  0.8541E+01
   3.242  0.3754E+00  0.8545E+01
   3.252  0.3728E+00  0.8548E+01
   3.262  0.3703E+00  0.8552E+01
   3.272  0.3677E+00  0.8556E+01
   3.282  0.3652E+00  0.8559E+01
   3.292  0.3626E+00  0.8563E+01
   3.302  0.3601E+00  0.8567E+01
   3.312  0.3575E+00  0.8570E+01
   3.322  0.3550E+00  0.8574E+01
   3.332  0.3524E+00  0.8577E+01
   3.342  0.3499E+00  0.8581E+01
   3.352  0.3473E+00  0.8584E+01
   3.362  0.3448E+00  0.8588E+01
   3.372  0.3422E+00  0.8591E+01
   3.382  0.3397E+00  0.8594E+01
   3.392  0.3371E+00  0.8598E+01
   3.402  0.3346E+00  0.8601E+01
   3.412  0.3320E+00  0.8604E+01
   3.422  0.3295E+00  0.8608E+01
   3.432  0.3269E+00  0.8611E+01
   3.442  0.3249E+00  0.8614E+01
   3.452  0.3230E+00  0.8617E+01
   3.462  0.3212E+00  0.8621E+01
   3.472  0.3193E+00  0.8624E+01
   3.482  0.3174E+00  0.8627E+01
   3.492  0.3155E+00  0.8630E+01
   3.502  0.3137E+00  0.8633E+01
   3.512  0.3118E+00  0.8636E+01
   3.522  0.3099E+00  0.8640E+01
   3.532  0.3080E+00  0.8643E+01
   3.542  0.3062E+00  0.8646E+01
   3.552  0.3043E+00  0.8649E+01
   3.562  0.3024E+00  0.8652E+01
   3.572  0.3005E+00  0.8655E+01
   3.582  0.2987E+00  0.8658E+01
   3.592  0.2968E+00  0.8661E+01
   3.602  0.2949E+00  0.8664E+01
   3.612  0.2930E+00  0.8667E+01
   3.622  0.2911E+00  0.8670E+01
   3.632  0.2893E+00  0.8672E+01
   3.642  0.2874E+00  0.8675E+01
   3.652  0.2855E+00  0.8678E+01
   3.662  0.2836E+00  0.8681E+01
   3.672  0.2818E+00  0.8684E+01
   3.682  0.2799E+00  0.8687E+01
   3.692  0.2780E+00  0.8689E+01
   3.702  0.2765E+00  0.8692E+01
   3.712  0.2751E+00  0.8695E+01
   3.722  0.2738E+00  0.8698E+01
   3.732  0.2725E+00  0.8700E+01
   3.742  0.2714E+00  0.8703E+01
   3.752  0.2710E+00  0.8706E+01
   3.762  0.2705E+00  0.8708E+01
   3.772  0.2801E+00  0.8711E+01
   3.782  0.2963E+00  0.8714E+01
   3.792  0.3126E+00  0.8717E+01
   3.802  0.3288E+00  0.8721E+01
   3.812  0.3450E+00  0.8724E+01
   3.822  0.3612E+00  0.8728E+01
   3.832  0.3774E+00  0.8732E+01
   3.842  0.3936E+00  0.8735E+01
   3.852  0.4098E+00  0.8740E+01
   3.862  0.4260E+00  0.8744E+01
   3.872  0.4422E+00  0.8748E+01
   3.882  0.4584E+00  0.8753E+01
   3.892  0.4746E+00  0.8758E+01
   3.902  0.4908E+00  0.8762E+01
   3.912  0.5070E+00  0.8768E+01
   3.922  0.5232E+00  0.8773E+01
   3.932  0.5394E+00  0.8778E+01
   3.942  0.5556E+00  0.8784E+01
   3.952  0.5718E+00  0.8789E+01
   3.962  0.5880E+00  0.8795E+01
   3.972  0.6042E+00  0.8801E+01
   3.982  0.6204E+00  0.8808E+01
   3.992  0.4467E+00  0.8812E+01
   4.002  0.4477E+00  0.8816E+01
   4.012  0.4486E+00  0.8821E+01
   4.022  0.4495E+00  0.8825E+01
   4.032  0.4505E+00  0.8830E+01
   4.042  0.4514E+00  0.8834E+01
   4.052  0.4524E+00  0.8839E+01
   4.062  0.4533E+00  0.8844E+01
   4.072  0.4543E+00  0.8848E+01
   4.082  0.4552E+00  0.8853E+01
   4.092  0.4561E+00  0.8857E+01
   4.102  0.4571E+00  0.8862E+01
   4.112  0.4580E+00  0.8866E+01
   4.122  0.4590E+00  0.8871E+01
   4.132  0.4599E+00  0.8876E+01
   4.142  0.4608E+00  0.8880E+01
   4.152  0.4618E+00  0.8885E+01
   4.162  0.4627E+00  0.8889E+01
   4.172  0.4637E+00  0.8894E+01
   4.182  0.4646E+00  0.8899E+01
   4.192  0.4656E+00  0.8903E+01
   4.202  0.4665E+00  0.8908E+01
   4.212  0.4674E+00  0.8913E+01
   4.222  0.4684E+00  0.8917E+01
   4.232  0.4693E+00  0.8922E+01
   4.242  0.4703E+00  0.8927E+01
   4.252  0.4712E+00  0.8931E+01
   4.262  0.4722E+00  0.8936E+01
   4.272  0.4731E+00  0.8941E+01
   4.282  0.4740E+00  0.8946E+01
   4.292  0.4750E+00  0.8950E+01
   4.302  0.4759E+00  0.8955E+01
   4.312  0.4769E+00  0.8960E+01
   4.322  0.4778E+00  0.8965E+01
   4.332  0.4787E+00  0.8970E+01
   4.342  0.4797E+00  0.8974E+01
   4.352  0.4806E+00  0.8979E+01
   4.362  0.4816E+00  0.8984E+01
   4.372  0.4825E+00  0.8989E+01
   4.382  0.4835E+00  0.8994E+01
   4.392  0.4844E+00  0.8998E+01
   4.402  0.4853E+00  0.9003E+01
   4.412  0.4863E+00  0.9008E+01
   4.422  0.4872E+00  0.9013E+01
   4.432  0.4882E+00  0.9018E+01
   4.442  0.4877E+00  0.9023E+01
   4.452  0.4855E+00  0.9028E+01
   4.462  0.4833E+00  0.9032E+01
   4.472  0.4811E+00  0.9037E+01
   4.482  0.4789E+00  0.9042E+01
   4.492  0.4768E+00  0.9047E+01
   4.502  0.4746E+00  0.9052E+01
   4.512  0.4724E+00  0.9056E+01
   4.522  0.4702E+00  0.9061E+01
   4.532  0.4680E+00  0.9066E+01
   4.542  0.4659E+00  0.9070E+01
   4.552  0.4637E+00  0.9075E+01
   4.562  0.4615E+00  0.9080E+01
   4.572  0.4593E+00  0.9084E+01
   4.582  0.4571E+00  0.9089E+01
   4.592  0.4550E+00  0.9093E+01
   4.602  0.4528E+00  0.9098E+01
   4.612  0.4506E+00  0.9102E+01
   4.622  0.4484E+00  0.9107E+01
   4.632  0.4462E+00  0.9111E+01
   4.642  0.4441E+00  0.9116E+01
   4.652  0.4420E+00  0.9120E+01
   4.662  0.4403E+00  0.9125E+01
   4.672  0.4405E+00  0.9129E+01
   4.682  0.4408E+00  0.9133E+01
   4.692  0.4410E+00  0.9138E+01
   4.702  0.4413E+00  0.9142E+01
   4.712  0.4415E+00  0.9147E+01
   4.722  0.4418E+00  0.9151E+01
   4.732  0.4420E+00  0.9155E+01
   4.742  0.4423E+00  0.9160E+01
   4.752  0.4426E+00  0.9164E+01
   4.762  0.4428E+00  0.9169E+01
   4.772  0.4431E+00  0.9173E+01
   4.782  0.4433E+00  0.9178E+01
   4.792  0.4436E+00  0.9182E+01
   4.802  0.4438E+00  0.9186E+01
   4.812  0.4441E+00  0.9191E+01
   4.822  0.4443E+00  0.9195E+01
   4.832  0.4446E+00  0.9200E+01
   4.842  0.4449E+00  0.9204E+01
   4.852  0.4451E+00  0.9209E+01
   4.862  0.4454E+00  0.9213E+01
   4.872  0.4456E+00  0.9218E+01
   4.882  0.4459E+00  0.9222E+01
   4.892  0.4461E+00  0.9227E+01
   4.902  0.4464E+00  0.9231E+01
   4.912  0.4466E+00  0.9235E+01
   4.922  0.4469E+00  0.9240E+01
   4.932  0.4472E+00  0.9244E+01
   4.942  0.4474E+00  0.9249E+01
   4.952  0.4477E+00  0.9253E+01
   4.962  0.4479E+00  0.9258E+01
   4.972  0.4482E+00  0.9262E+01
   4.982  0.4484E+00  0.9267E+01
   4.992  0.4487E+00  0.9271E+01
   5.002  0.4489E+00  0.9276E+01
   5.012  0.4492E+00  0.9280E+01
   5.022  0.4495E+00  0.9285E+01
   5.032  0.4497E+00  0.9289E+01
   5.042  0.4500E+00  0.9294E+01
   5.052  0.4502E+00  0.9298E+01
   5.062  0.4505E+00  0.9303E+01
   5.072  0.4507E+00  0.9307E+01
   5.082  0.4510E+00  0.9312E+01
   5.092  0.4512E+00  0.9316E+01
   5.102  0.4515E+00  0.9321E+01
   5.112  0.4518E+00  0.9325E+01
   5.122  0.4520E+00  0.9330E+01
   5.132  0.4523E+00  0.9334E+01
   5.142  0.4525E+00  0.9339E+01
   5.152  0.4528E+00  0.9343E+01
   5.162  0.4530E+00  0.9348E+01
   5.172  0.4533E+00  0.9352E+01
   5.182  0.4535E+00  0.9357E+01
   5.192  0.4538E+00  0.9362E+01
   5.202  0.4540E+00  0.9366E+01
   5.212  0.4543E+00  0.9371E+01
   5.222  0.4546E+00  0.9375E+01
   5.232  0.4548E+00  0.9380E+01
   5.242  0.4551E+00  0.9384E+01
   5.252  0.4553E+00  0.9389E+01
   5.262  0.4556E+00  0.9393E+01
   5.272  0.4558E+00  0.9398E+01
   5.282  0.4561E+00  0.9403E+01
   5.292  0.4563E+00  0.9407E+01
   5.302  0.4566E+00  0.9412E+01
   5.312  0.4569E+00  0.9416E+01
   5.322  0.4571E+00  0.9421E+01
   5.332  0.4388E+00  0.9425E+01
   5.342  0.4385E+00  0.9430E+01
   5.352  0.4381E+00  0.9434E+01
   5.362  0.4378E+00  0.9438E+01
   5.372  0.4629E+00  0.9443E+01
   5.382  0.4627E+00  0.9448E+01
   5.392  0.4625E+00  0.9452E+01
   5.402  0.4622E+00  0.9457E+01
   5.412  0.4620E+00  0.9461E+01
   5.422  0.4618E+00  0.9466E+01
   5.432  0.4615E+00  0.9471E+01
   5.442  0.4613E+00  0.9475E+01
   5.452  0.4611E+00  0.9480E+01
   5.462  0.4609E+00  0.9484E+01
   5.472  0.4606E+00  0.9489E+01
   5.482  0.4604E+00  0.9494E+01
   5.492  0.4602E+00  0.9498E+01
   5.502  0.4599E+00  0.9503E+01
   5.512  0.4597E+00  0.9508E+01
   5.522  0.4595E+00  0.9512E+01
   5.532  0.4592E+00  0.9517E+01
   5.542  0.4590E+00  0.9521E+01
   5.552  0.4588E+00  0.9526E+01
   5.562  0.4585E+00  0.9530E+01
   5.572  0.4583E+00  0.9535E+01
   5.582  0.4581E+00  0.9540E+01
   5.592  0.4579E+00  0.9544E+01
   5.602  0.4576E+00  0.9549E+01
   5.612  0.4574E+00  0.9553E+01
   5.622  0.4572E+00  0.9558E+01
   5.632  0.4569E+00  0.9562E+01
   5.642  0.4567E+00  0.9567E+01
   5.652  0.4565E+00  0.9572E+01
   5.662  0.4562E+00  0.9576E+01
   5.672  0.4560E+00  0.9581E+01
   5.682  0.4558E+00  0.9585E+01
   5.692  0.4556E+00  0.9590E+01
   5.702  0.4553E+00  0.9594E+01
   5.712  0.4551E+00  0.9599E+01
   5.722  0.4549E+00  0.9604E+01
   5.732  0.4546E+00  0.9608E+01
   5.742  0.4544E+00  0.9613E+01
   5.752  0.4542E+00  0.9617E+01
   5.762  0.4539E+00  0.9622E+01
   5.772  0.4537E+00  0.9626E+01
   5.782  0.4654E+00  0.9631E+01
   5.792  0.4943E+00  0.9636E+01
   5.802  0.5232E+00  0.9641E+01
   5.812  0.5521E+00  0.9647E+01
   5.822  0.5810E+00  0.9652E+01
   5.832  0.6100E+00  0.9658E+01
   5.842  0.6329E+00  0.9665E+01
   5.852  0.6285E+00  0.9671E+01
   5.862  0.6242E+00  0.9677E+01
   5.872  0.6198E+00  0.9684E+01
   5.882  0.6155E+00  0.9690E+01
   5.892  0.6111E+00  0.9696E+01
   5.902  0.6068E+00  0.9702E+01
   5.912  0.6024E+00  0.9708E+01
   5.922  0.5980E+00  0.9714E+01
   5.932  0.5937E+00  0.9720E+01
   5.942  0.5893E+00  0.9726E+01
   5.952  0.5850E+00  0.9732E+01
   5.962  0.5806E+00  0.9737E+01
   5.972  0.5763E+00  0.9743E+01
   5.982  0.5719E+00  0.9749E+01
   5.992  0.5676E+00  0.9755E+01
   6.002  0.5632E+00  0.9760E+01
   6.012  0.5589E+00  0.9766E+01
   6.022  0.5545E+00  0.9771E+01
   6.032  0.5501E+00  0.9777E+01
   6.042  0.5458E+00  0.9782E+01
   6.052  0.5414E+00  0.9788E+01
   6.062  0.5371E+00  0.9793E+01
   6.072  0.5327E+00  0.9798E+01
   6.082  0.5284E+00  0.9804E+01
   6.092  0.5240E+00  0.9809E+01
   6.102  0.5197E+00  0.9814E+01
   6.112  0.5153E+00  0.9819E+01
   6.122  0.5110E+00  0.9824E+01
   6.132  0.5066E+00  0.9829E+01
   6.142  0.5022E+00  0.9834E+01
   6.152  0.4979E+00  0.9839E+01
   6.162  0.4935E+00  0.9844E+01
   6.172  0.4892E+00  0.9849E+01
   6.182  0.4848E+00  0.9854E+01
   6.192  0.4805E+00  0.9859E+01
   6.202  0.4761E+00  0.9864E+01
   6.212  0.4718E+00  0.9868E+01
   6.222  0.4674E+00  0.9873E+01
   6.232  0.4631E+00  0.9878E+01
   6.242  0.4587E+00  0.9882E+01
   6.252  0.4543E+00  0.9887E+01
   6.262  0.4500E+00  0.9891E+01
   6.272  0.4456E+00  0.9896E+01
   6.282  0.4413E+00  0.9900E+01
   6.292  0.4369E+00  0.9905E+01
   6.302  0.4326E+00  0.9909E+01
   6.312  0.4282E+00  0.9913E+01
   6.322  0.4239E+00  0.9917E+01
   6.332  0.4195E+00  0.9922E+01
   6.342  0.4152E+00  0.9926E+01
   6.352  0.4108E+00  0.9930E+01
   6.362  0.4064E+00  0.9934E+01
   6.372  0.4021E+00  0.9938E+01
   6.382  0.3977E+00  0.9942E+01
   6.392  0.3934E+00  0.9946E+01
   6.402  0.3890E+00  0.9950E+01
   6.412  0.3847E+00  0.9954E+01
   6.422  0.3803E+00  0.9957E+01
   6.432  0.3760E+00  0.9961E+01
   6.442  0.3716E+00  0.9965E+01
   6.452  0.3634E+00  0.9968E+01
   6.462  0.3467E+00  0.9972E+01
   6.472  0.3301E+00  0.9975E+01
   6.482  0.3135E+00  0.9978E+01
   6.492  0.2968E+00  0.9981E+01
   6.502  0.2802E+00  0.9984E+01
   6.512  0.2635E+00  0.9987E+01
   6.522  0.2469E+00  0.9989E+01
   6.532  0.2302E+00  0.9992E+01
   6.542  0.2136E+00  0.9994E+01
   6.552  0.1969E+00  0.9996E+01
   6.562  0.1803E+00  0.9997E+01
   6.572  0.1637E+00  0.9999E+01
   6.582  0.1470E+00  0.1000E+02
   6.592  0.1304E+00  0.1000E+02
   6.602  0.1137E+00  0.1000E+02
   6.612  0.9709E-01  0.1000E+02
   6.622  0.8044E-01  0.1000E+02
   6.632  0.6380E-01  0.1001E+02
   6.642  0.4716E-01  0.1001E+02
   6.652  0.3051E-01  0.1001E+02
   6.662  0.1387E-01  0.1001E+02
   6.672  0.0000E+00  0.1001E+02
   6.682  0.0000E+00  0.1001E+02
   6.692  0.0000E+00  0.1001E+02
   6.702  0.0000E+00  0.1001E+02
   6.712  0.0000E+00  0.1001E+02
   6.722  0.0000E+00  0.1001E+02
   6.732  0.0000E+00  0.1001E+02
   6.742  0.0000E+00  0.1001E+02
   6.752  0.0000E+00  0.1001E+02
   6.762  0.0000E+00  0.1001E+02
   6.772  0.0000E+00  0.1001E+02
   6.782  0.0000E+00  0.1001E+02
   6.792  0.0000E+00  0.1001E+02
   6.802  0.0000E+00  0.1001E+02
   6.812  0.0000E+00  0.1001E+02
   6.822  0.0000E+00  0.1001E+02
   6.832  0.0000E+00  0.1001E+02
   6.842  0.0000E+00  0.1001E+02
   6.852  0.0000E+00  0.1001E+02
   6.862  0.0000E+00  0.1001E+02
   6.872  0.0000E+00  0.1001E+02
   6.882  0.4903E-02  0.1001E+02
   6.892  0.1751E-01  0.1001E+02
   6.902  0.3012E-01  0.1001E+02
   6.912  0.4273E-01  0.1001E+02
   6.922  0.5534E-01  0.1001E+02
   6.932  0.6795E-01  0.1001E+02
   6.942  0.8055E-01  0.1001E+02
   6.952  0.9316E-01  0.1001E+02
   6.962  0.1058E+00  0.1001E+02
   6.972  0.1184E+00  0.1001E+02
   6.982  0.1310E+00  0.1001E+02
   6.992  0.1436E+00  0.1002E+02
   7.002  0.1562E+00  0.1002E+02
   7.012  0.1688E+00  0.1002E+02
   7.022  0.1814E+00  0.1002E+02
   7.032  0.1940E+00  0.1002E+02
   7.042  0.2066E+00  0.1002E+02
   7.052  0.2192E+00  0.1003E+02
   7.062  0.2319E+00  0.1003E+02
   7.072  0.2445E+00  0.1003E+02
   7.082  0.2571E+00  0.1003E+02
   7.092  0.2697E+00  0.1004E+02
   7.102  0.2823E+00  0.1004E+02
   7.112  0.2949E+00  0.1004E+02
   7.122  0.3075E+00  0.1005E+02
   7.132  0.3201E+00  0.1005E+02
   7.142  0.3492E+00  0.1005E+02
   7.152  0.3804E+00  0.1006E+02
   7.162  0.4117E+00  0.1006E+02
   7.172  0.4429E+00  0.1006E+02
   7.182  0.4741E+00  0.1007E+02
   7.192  0.5053E+00  0.1007E+02
   7.202  0.5365E+00  0.1008E+02
   7.212  0.5677E+00  0.1009E+02
   7.222  0.5990E+00  0.1009E+02
   7.232  0.6302E+00  0.1010E+02
   7.242  0.6614E+00  0.1010E+02
   7.252  0.6926E+00  0.1011E+02
   7.262  0.7238E+00  0.1012E+02
   7.272  0.7550E+00  0.1013E+02
   7.282  0.7863E+00  0.1013E+02
   7.292  0.8175E+00  0.1014E+02
   7.302  0.8487E+00  0.1015E+02
   7.312  0.8799E+00  0.1016E+02
   7.322  0.9078E+00  0.1017E+02
   7.332  0.9327E+00  0.1018E+02
   7.342  0.9519E+00  0.1019E+02
   7.352  0.7609E+00  0.1019E+02
   7.362  0.7624E+00  0.1020E+02
   7.372  0.7638E+00  0.1021E+02
   7.382  0.7653E+00  0.1022E+02
   7.392  0.7667E+00  0.1023E+02
   7.402  0.7682E+00  0.1023E+02
   7.412  0.7697E+00  0.1024E+02
   7.422  0.7711E+00  0.1025E+02
   7.432  0.7726E+00  0.1026E+02
   7.442  0.7740E+00  0.1026E+02
   7.452  0.7755E+00  0.1027E+02
   7.462  0.7770E+00  0.1028E+02
   7.472  0.7784E+00  0.1029E+02
   7.482  0.7799E+00  0.1029E+02
   7.492  0.7813E+00  0.1030E+02
   7.502  0.7828E+00  0.1031E+02
   7.512  0.7842E+00  0.1032E+02
   7.522  0.7857E+00  0.1033E+02
   7.532  0.7872E+00  0.1033E+02
   7.542  0.7886E+00  0.1034E+02
   7.552  0.7901E+00  0.1035E+02
   7.562  0.7915E+00  0.1036E+02
   7.572  0.7930E+00  0.1037E+02
   7.582  0.7945E+00  0.1037E+02
   7.592  0.7959E+00  0.1038E+02
   7.602  0.7974E+00  0.1039E+02
   7.612  0.7988E+00  0.1040E+02
   7.622  0.8003E+00  0.1041E+02
   7.632  0.8017E+00  0.1041E+02
   7.642  0.8032E+00  0.1042E+02
   7.652  0.8047E+00  0.1043E+02
   7.662  0.8061E+00  0.1044E+02
   7.672  0.8076E+00  0.1045E+02
   7.682  0.8090E+00  0.1045E+02
   7.692  0.8105E+00  0.1046E+02
   7.702  0.8120E+00  0.1047E+02
   7.712  0.8134E+00  0.1048E+02
   7.722  0.8149E+00  0.1049E+02
   7.732  0.8163E+00  0.1049E+02
   7.742  0.8178E+00  0.1050E+02
   7.752  0.8192E+00  0.1051E+02
   7.762  0.8207E+00  0.1052E+02
   7.772  0.8211E+00  0.1053E+02
   7.782  0.8195E+00  0.1054E+02
   7.792  0.8179E+00  0.1054E+02
   7.802  0.8163E+00  0.1055E+02
   7.812  0.8147E+00  0.1056E+02
   7.822  0.8130E+00  0.1057E+02
   7.832  0.8114E+00  0.1058E+02
   7.842  0.8098E+00  0.1058E+02
   7.852  0.8082E+00  0.1059E+02
   7.862  0.8066E+00  0.1060E+02
   7.872  0.8049E+00  0.1061E+02
   7.882  0.8033E+00  0.1062E+02
   7.892  0.8017E+00  0.1062E+02
   7.902  0.8001E+00  0.1063E+02
   7.912  0.7985E+00  0.1064E+02
   7.922  0.7968E+00  0.1065E+02
   7.932  0.7952E+00  0.1066E+02
   7.942  0.7936E+00  0.1066E+02
   7.952  0.7920E+00  0.1067E+02
   7.962  0.7904E+00  0.1068E+02
   7.972  0.7888E+00  0.1069E+02
   7.982  0.7929E+00  0.1070E+02
   7.992  0.8092E+00  0.1070E+02
   8.002  0.8254E+00  0.1071E+02
   8.012  0.7674E+00  0.1072E+02
   8.022  0.7828E+00  0.1073E+02
   8.032  0.7981E+00  0.1074E+02
   8.042  0.8135E+00  0.1074E+02
   8.052  0.8289E+00  0.1075E+02
   8.062  0.8443E+00  0.1076E+02
   8.072  0.8597E+00  0.1077E+02
   8.082  0.8750E+00  0.1078E+02
   8.092  0.8904E+00  0.1079E+02
   8.102  0.9058E+00  0.1080E+02
   8.112  0.9212E+00  0.1081E+02
   8.122  0.9366E+00  0.1081E+02
   8.132  0.9416E+00  0.1082E+02
   8.142  0.9312E+00  0.1083E+02
   8.152  0.9208E+00  0.1084E+02
   8.162  0.9104E+00  0.1085E+02
   8.172  0.8999E+00  0.1086E+02
   8.182  0.8895E+00  0.1087E+02
   8.192  0.8791E+00  0.1088E+02
   8.202  0.8687E+00  0.1089E+02
   8.212  0.8583E+00  0.1090E+02
   8.222  0.8478E+00  0.1090E+02
   8.232  0.8374E+00  0.1091E+02
   8.242  0.8270E+00  0.1092E+02
   8.252  0.8166E+00  0.1093E+02
   8.262  0.8062E+00  0.1094E+02
   8.272  0.7958E+00  0.1095E+02
   8.282  0.7853E+00  0.1095E+02
   8.292  0.7749E+00  0.1096E+02
   8.302  0.7937E+00  0.1097E+02
   8.312  0.8125E+00  0.1098E+02
   8.322  0.8314E+00  0.1099E+02
   8.332  0.8502E+00  0.1099E+02
   8.342  0.8690E+00  0.1100E+02
   8.352  0.8879E+00  0.1101E+02
   8.362  0.9067E+00  0.1102E+02
   8.372  0.9255E+00  0.1103E+02
   8.382  0.9273E+00  0.1104E+02
   8.392  0.9285E+00  0.1105E+02
   8.402  0.9297E+00  0.1106E+02
   8.412  0.9308E+00  0.1107E+02
   8.422  0.9320E+00  0.1108E+02
   8.432  0.9331E+00  0.1109E+02
   8.442  0.9295E+00  0.1109E+02
   8.452  0.9144E+00  0.1110E+02
   8.462  0.8992E+00  0.1111E+02
   8.472  0.8841E+00  0.1112E+02
   8.482  0.8689E+00  0.1113E+02
   8.492  0.8538E+00  0.1114E+02
   8.502  0.8386E+00  0.1115E+02
   8.512  0.8235E+00  0.1116E+02
   8.522  0.8083E+00  0.1116E+02
   8.532  0.7932E+00  0.1117E+02
   8.542  0.7780E+00  0.1118E+02
   8.552  0.7629E+00  0.1119E+02
   8.562  0.7477E+00  0.1119E+02
   8.572  0.7326E+00  0.1120E+02
   8.582  0.7174E+00  0.1121E+02
   8.592  0.5437E+00  0.1121E+02
   8.602  0.5392E+00  0.1122E+02
   8.612  0.5346E+00  0.1123E+02
   8.622  0.5301E+00  0.1123E+02
   8.632  0.5285E+00  0.1124E+02
   8.642  0.5370E+00  0.1124E+02
   8.652  0.5454E+00  0.1125E+02
   8.662  0.5539E+00  0.1125E+02
   8.672  0.5623E+00  0.1126E+02
   8.682  0.5708E+00  0.1126E+02
   8.692  0.5793E+00  0.1127E+02
   8.702  0.5877E+00  0.1127E+02
   8.712  0.5962E+00  0.1128E+02
   8.722  0.6047E+00  0.1129E+02
   8.732  0.6131E+00  0.1129E+02
   8.742  0.6216E+00  0.1130E+02
   8.752  0.6301E+00  0.1131E+02
   8.762  0.6385E+00  0.1131E+02
   8.772  0.6470E+00  0.1132E+02
   8.782  0.6554E+00  0.1133E+02
   8.792  0.6639E+00  0.1133E+02
   8.802  0.6724E+00  0.1134E+02
   8.812  0.6808E+00  0.1135E+02
   8.822  0.6893E+00  0.1135E+02
   8.832  0.6978E+00  0.1136E+02
   8.842  0.7062E+00  0.1137E+02
   8.852  0.7147E+00  0.1137E+02
   8.862  0.7231E+00  0.1138E+02
   8.872  0.7316E+00  0.1139E+02
   8.882  0.7401E+00  0.1140E+02
   8.892  0.7485E+00  0.1140E+02
   8.902  0.7570E+00  0.1141E+02
   8.912  0.7655E+00  0.1142E+02
   8.922  0.7739E+00  0.1143E+02
   8.932  0.7824E+00  0.1143E+02
   8.942  0.7908E+00  0.1144E+02
   8.952  0.7993E+00  0.1145E+02
   8.962  0.8257E+00  0.1146E+02
   8.972  0.9225E+00  0.1147E+02
   8.982  0.1019E+01  0.1148E+02
   8.992  0.1116E+01  0.1149E+02
   9.002  0.1213E+01  0.1150E+02
   9.012  0.1310E+01  0.1151E+02
   9.022  0.1407E+01  0.1153E+02
   9.032  0.1504E+01  0.1154E+02
   9.042  0.1536E+01  0.1156E+02
   9.052  0.1636E+01  0.1157E+02
   9.062  0.2026E+01  0.1159E+02
   9.072  0.2001E+01  0.1161E+02
   9.082  0.1977E+01  0.1163E+02
   9.092  0.1952E+01  0.1165E+02
   9.102  0.1928E+01  0.1167E+02
   9.112  0.1903E+01  0.1169E+02
   9.122  0.1886E+01  0.1171E+02
   9.132  0.1869E+01  0.1173E+02
   9.142  0.1852E+01  0.1175E+02
   9.152  0.1835E+01  0.1177E+02
   9.162  0.1818E+01  0.1178E+02
   9.172  0.1801E+01  0.1180E+02
   9.182  0.1783E+01  0.1182E+02
   9.192  0.1766E+01  0.1184E+02
   9.202  0.1749E+01  0.1186E+02
   9.212  0.1732E+01  0.1187E+02
   9.222  0.1829E+01  0.1189E+02
   9.232  0.1909E+01  0.1191E+02
   9.242  0.1989E+01  0.1193E+02
   9.252  0.2069E+01  0.1195E+02
   9.262  0.2412E+01  0.1198E+02
   9.272  0.2365E+01  0.1200E+02
   9.282  0.2317E+01  0.1202E+02
   9.292  0.2269E+01  0.1204E+02
   9.302  0.2221E+01  0.1207E+02
   9.312  0.2173E+01  0.1209E+02
   9.322  0.2125E+01  0.1211E+02
   9.332  0.2078E+01  0.1213E+02
   9.342  0.2030E+01  0.1215E+02
   9.352  0.1984E+01  0.1217E+02
   9.362  0.1945E+01  0.1219E+02
   9.372  0.1906E+01  0.1221E+02
   9.382  0.1867E+01  0.1223E+02
   9.392  0.1827E+01  0.1225E+02
   9.402  0.1788E+01  0.1226E+02
   9.412  0.1749E+01  0.1228E+02
   9.422  0.1710E+01  0.1230E+02
   9.432  0.1671E+01  0.1232E+02
   9.442  0.1632E+01  0.1233E+02
   9.452  0.1592E+01  0.1235E+02
   9.462  0.1553E+01  0.1236E+02
   9.472  0.1514E+01  0.1238E+02
   9.482  0.1475E+01  0.1239E+02
   9.492  0.1436E+01  0.1241E+02
   9.502  0.1390E+01  0.1242E+02
   9.512  0.1343E+01  0.1243E+02
   9.522  0.1296E+01  0.1245E+02
   9.532  0.1249E+01  0.1246E+02
   9.542  0.1202E+01  0.1247E+02
   9.552  0.1183E+01  0.1248E+02
   9.562  0.1177E+01  0.1250E+02
   9.572  0.1172E+01  0.1251E+02
   9.582  0.1167E+01  0.1252E+02
   9.592  0.1161E+01  0.1253E+02
   9.602  0.1156E+01  0.1254E+02
   9.612  0.1150E+01  0.1255E+02
   9.622  0.1150E+01  0.1257E+02
   9.632  0.1161E+01  0.1258E+02
   9.642  0.1173E+01  0.1259E+02
   9.652  0.1184E+01  0.1260E+02
   9.662  0.1195E+01  0.1261E+02
   9.672  0.1184E+01  0.1262E+02
   9.682  0.1193E+01  0.1264E+02
   9.692  0.1201E+01  0.1265E+02
   9.702  0.1209E+01  0.1266E+02
   9.712  0.1217E+01  0.1267E+02
   9.722  0.1482E+01  0.1269E+02
   9.732  0.1478E+01  0.1270E+02
   9.742  0.1475E+01  0.1272E+02
   9.752  0.1471E+01  0.1273E+02
   9.762  0.1468E+01  0.1275E+02
   9.772  0.1464E+01  0.1276E+02
   9.782  0.1460E+01  0.1278E+02
   9.792  0.1456E+01  0.1279E+02
   9.802  0.1452E+01  0.1280E+02
   9.812  0.1449E+01  0.1282E+02
   9.822  0.1445E+01  0.1283E+02
   9.832  0.1441E+01  0.1285E+02
   9.842  0.1437E+01  0.1286E+02
   9.852  0.1433E+01  0.1288E+02
   9.862  0.1429E+01  0.1289E+02
   9.872  0.1426E+01  0.1291E+02
   9.882  0.1425E+01  0.1292E+02
   9.892  0.1425E+01  0.1293E+02
   9.902  0.1425E+01  0.1295E+02
   9.912  0.1425E+01  0.1296E+02
   9.922  0.1424E+01  0.1298E+02
   9.932  0.1424E+01  0.1299E+02
   9.942  0.1424E+01  0.1300E+02
   9.952  0.1424E+01  0.1302E+02
   9.962  0.1424E+01  0.1303E+02
   9.972  0.1424E+01  0.1305E+02
   9.982  0.1424E+01  0.1306E+02
   9.992  0.1425E+01  0.1308E+02
  10.002  0.1425E+01  0.1309E+02
  10.012  0.1426E+01  0.1310E+02
  10.022  0.1426E+01  0.1312E+02
  10.032  0.1427E+01  0.1313E+02
  10.042  0.1427E+01  0.1315E+02
  10.052  0.1428E+01  0.1316E+02
  10.062  0.1428E+01  0.1318E+02
  10.072  0.1429E+01  0.1319E+02
  10.082  0.1429E+01  0.1320E+02
  10.092  0.1430E+01  0.1322E+02
  10.102  0.1430E+01  0.1323E+02
  10.112  0.1431E+01  0.1325E+02
  10.122  0.1431E+01  0.1326E+02
  10.132  0.1432E+01  0.1328E+02
  10.142  0.1406E+01  0.1329E+02
  10.152  0.1373E+01  0.1330E+02
  10.162  0.1340E+01  0.1332E+02
  10.172  0.1307E+01  0.1333E+02
  10.182  0.1274E+01  0.1334E+02
  10.192  0.1241E+01  0.1336E+02
  10.202  0.1208E+01  0.1337E+02
  10.212  0.1176E+01  0.1338E+02
  10.222  0.1143E+01  0.1339E+02
  10.232  0.1110E+01  0.1340E+02
  10.242  0.1077E+01  0.1341E+02
  10.252  0.1044E+01  0.1342E+02
  10.262  0.1011E+01  0.1343E+02
  10.272  0.9783E+00  0.1344E+02
  10.282  0.9454E+00  0.1345E+02
  10.292  0.9126E+00  0.1346E+02
  10.302  0.8797E+00  0.1347E+02
  10.312  0.8468E+00  0.1348E+02
  10.322  0.8399E+00  0.1349E+02
  10.332  0.8392E+00  0.1350E+02
  10.342  0.8384E+00  0.1350E+02
  10.352  0.8376E+00  0.1351E+02
  10.362  0.8368E+00  0.1352E+02
  10.372  0.8360E+00  0.1353E+02
  10.382  0.8352E+00  0.1354E+02
  10.392  0.8344E+00  0.1355E+02
  10.402  0.8336E+00  0.1355E+02
  10.412  0.8328E+00  0.1356E+02
  10.422  0.8321E+00  0.1357E+02
  10.432  0.8313E+00  0.1358E+02
  10.442  0.8305E+00  0.1359E+02
  10.452  0.8297E+00  0.1360E+02
  10.462  0.8289E+00  0.1360E+02
  10.472  0.8281E+00  0.1361E+02
  10.482  0.8273E+00  0.1362E+02
  10.492  0.8265E+00  0.1363E+02
  10.502  0.8257E+00  0.1364E+02
  10.512  0.8250E+00  0.1365E+02
  10.522  0.8242E+00  0.1365E+02
  10.532  0.8234E+00  0.1366E+02
  10.542  0.8227E+00  0.1367E+02
  10.552  0.8219E+00  0.1368E+02
  10.562  0.8212E+00  0.1369E+02
  10.572  0.8205E+00  0.1369E+02
  10.582  0.8198E+00  0.1370E+02
  10.592  0.8190E+00  0.1371E+02
  10.602  0.8183E+00  0.1372E+02
  10.612  0.8176E+00  0.1373E+02
  10.622  0.8169E+00  0.1374E+02
  10.632  0.8161E+00  0.1374E+02
  10.642  0.8154E+00  0.1375E+02
  10.652  0.8147E+00  0.1376E+02
  10.662  0.9467E+00  0.1377E+02
  10.672  0.9441E+00  0.1378E+02
  10.682  0.9415E+00  0.1379E+02
  10.692  0.9389E+00  0.1380E+02
  10.702  0.9363E+00  0.1381E+02
  10.712  0.9336E+00  0.1382E+02
  10.722  0.9310E+00  0.1383E+02
  10.732  0.9284E+00  0.1384E+02
  10.742  0.9258E+00  0.1384E+02
  10.752  0.9232E+00  0.1385E+02
  10.762  0.9206E+00  0.1386E+02
  10.772  0.9180E+00  0.1387E+02
  10.782  0.9154E+00  0.1388E+02
  10.792  0.9128E+00  0.1389E+02
  10.802  0.9101E+00  0.1390E+02
  10.812  0.9075E+00  0.1391E+02
  10.822  0.9049E+00  0.1392E+02
  10.832  0.9023E+00  0.1393E+02
  10.842  0.8997E+00  0.1394E+02
  10.852  0.8971E+00  0.1394E+02
  10.862  0.8945E+00  0.1395E+02
  10.872  0.8921E+00  0.1396E+02
  10.882  0.8897E+00  0.1397E+02
  10.892  0.8873E+00  0.1398E+02
  10.902  0.8883E+00  0.1399E+02
  10.912  0.8938E+00  0.1400E+02
  10.922  0.8993E+00  0.1401E+02
  10.932  0.9048E+00  0.1402E+02
  10.942  0.9556E+00  0.1403E+02
  10.952  0.9914E+00  0.1404E+02
  10.962  0.1027E+01  0.1405E+02
  10.972  0.1039E+01  0.1406E+02
  10.982  0.1044E+01  0.1407E+02
  10.992  0.1049E+01  0.1408E+02
  11.002  0.1054E+01  0.1409E+02
  11.012  0.1059E+01  0.1410E+02
  11.022  0.1064E+01  0.1411E+02
  11.032  0.1070E+01  0.1412E+02
  11.042  0.1075E+01  0.1413E+02
  11.052  0.1080E+01  0.1414E+02
  11.062  0.1085E+01  0.1415E+02
  11.072  0.1090E+01  0.1416E+02
  11.082  0.1095E+01  0.1417E+02
  11.092  0.1100E+01  0.1418E+02
  11.102  0.1105E+01  0.1420E+02
  11.112  0.1110E+01  0.1421E+02
  11.122  0.1115E+01  0.1422E+02
  11.132  0.1120E+01  0.1423E+02
  11.142  0.1125E+01  0.1424E+02
  11.152  0.1131E+01  0.1425E+02
  11.162  0.8585E+00  0.1426E+02
  11.172  0.8576E+00  0.1427E+02
  11.182  0.8568E+00  0.1428E+02
  11.192  0.8559E+00  0.1429E+02
  11.202  0.8551E+00  0.1429E+02
  11.212  0.8542E+00  0.1430E+02
  11.222  0.8534E+00  0.1431E+02
  11.232  0.8525E+00  0.1432E+02
  11.242  0.8517E+00  0.1433E+02
  11.252  0.8508E+00  0.1434E+02
  11.262  0.8500E+00  0.1435E+02
  11.272  0.8491E+00  0.1435E+02
  11.282  0.8483E+00  0.1436E+02
  11.292  0.8474E+00  0.1437E+02
  11.302  0.8466E+00  0.1438E+02
  11.312  0.8457E+00  0.1439E+02
  11.322  0.8449E+00  0.1440E+02
  11.332  0.8440E+00  0.1441E+02
  11.342  0.8432E+00  0.1441E+02
  11.352  0.8423E+00  0.1442E+02
  11.362  0.8415E+00  0.1443E+02
  11.372  0.8406E+00  0.1444E+02
  11.382  0.8398E+00  0.1445E+02
  11.392  0.8389E+00  0.1446E+02
  11.402  0.8381E+00  0.1446E+02
  11.412  0.8372E+00  0.1447E+02
  11.422  0.8364E+00  0.1448E+02
  11.432  0.8355E+00  0.1449E+02
  11.442  0.8346E+00  0.1450E+02
  11.452  0.8338E+00  0.1451E+02
  11.462  0.8329E+00  0.1451E+02
  11.472  0.8305E+00  0.1452E+02
  11.482  0.8277E+00  0.1453E+02
  11.492  0.8248E+00  0.1454E+02
  11.502  0.8219E+00  0.1455E+02
  11.512  0.8190E+00  0.1456E+02
  11.522  0.8161E+00  0.1456E+02
  11.532  0.8133E+00  0.1457E+02
  11.542  0.8104E+00  0.1458E+02
  11.552  0.8075E+00  0.1459E+02
  11.562  0.8046E+00  0.1460E+02
  11.572  0.8018E+00  0.1460E+02
  11.582  0.7989E+00  0.1461E+02
  11.592  0.8077E+00  0.1462E+02
  11.602  0.8222E+00  0.1463E+02
  11.612  0.8366E+00  0.1464E+02
  11.622  0.8511E+00  0.1464E+02
  11.632  0.8656E+00  0.1465E+02
  11.642  0.8801E+00  0.1466E+02
  11.652  0.8945E+00  0.1467E+02
  11.662  0.9090E+00  0.1468E+02
  11.672  0.9235E+00  0.1469E+02
  11.682  0.9391E+00  0.1470E+02
  11.692  0.9551E+00  0.1471E+02
  11.702  0.9710E+00  0.1472E+02
  11.712  0.9870E+00  0.1473E+02
  11.722  0.1003E+01  0.1474E+02
  11.732  0.1019E+01  0.1475E+02
  11.742  0.1035E+01  0.1476E+02
  11.752  0.1051E+01  0.1477E+02
  11.762  0.1067E+01  0.1478E+02
  11.772  0.1083E+01  0.1479E+02
  11.782  0.1099E+01  0.1480E+02
  11.792  0.1115E+01  0.1481E+02
  11.802  0.1131E+01  0.1482E+02
  11.812  0.1147E+01  0.1484E+02
  11.822  0.1164E+01  0.1485E+02
  11.832  0.1182E+01  0.1486E+02
  11.842  0.1201E+01  0.1487E+02
  11.852  0.1220E+01  0.1488E+02
  11.862  0.1296E+01  0.1490E+02
  11.872  0.1376E+01  0.1491E+02
  11.882  0.1455E+01  0.1492E+02
  11.892  0.1535E+01  0.1494E+02
  11.902  0.9454E+00  0.1495E+02
  11.912  0.1008E+01  0.1496E+02
  11.922  0.1070E+01  0.1497E+02
  11.932  0.1133E+01  0.1498E+02
  11.942  0.1196E+01  0.1499E+02
  11.952  0.1258E+01  0.1501E+02
  11.962  0.8676E+00  0.1501E+02
  11.972  0.8552E+00  0.1502E+02
  11.982  0.8427E+00  0.1503E+02
  11.992  0.8303E+00  0.1504E+02
  12.002  0.8179E+00  0.1505E+02
  12.012  0.8054E+00  0.1506E+02
  12.022  0.7930E+00  0.1506E+02
  12.032  0.7806E+00  0.1507E+02
  12.042  0.7682E+00  0.1508E+02
  12.052  0.7557E+00  0.1509E+02
  12.062  0.7433E+00  0.1509E+02
  12.072  0.7309E+00  0.1510E+02
  12.082  0.7185E+00  0.1511E+02
  12.092  0.7060E+00  0.1512E+02
  12.102  0.6936E+00  0.1512E+02
  12.112  0.6812E+00  0.1513E+02
  12.122  0.6687E+00  0.1514E+02
  12.132  0.6563E+00  0.1514E+02
  12.142  0.6439E+00  0.1515E+02
  12.152  0.6315E+00  0.1516E+02
  12.162  0.6190E+00  0.1516E+02
  12.172  0.6066E+00  0.1517E+02
  12.182  0.5942E+00  0.1517E+02
  12.192  0.5818E+00  0.1518E+02
  12.202  0.5693E+00  0.1519E+02
  12.212  0.5569E+00  0.1519E+02
  12.222  0.5445E+00  0.1520E+02
  12.232  0.5320E+00  0.1520E+02
  12.242  0.5196E+00  0.1521E+02
  12.252  0.5072E+00  0.1521E+02
  12.262  0.4990E+00  0.1522E+02
  12.272  0.5141E+00  0.1522E+02
  12.282  0.5375E+00  0.1523E+02
  12.292  0.5609E+00  0.1523E+02
  12.302  0.5844E+00  0.1524E+02
  12.312  0.6078E+00  0.1525E+02
  12.322  0.6312E+00  0.1525E+02
  12.332  0.6526E+00  0.1526E+02
  12.342  0.6711E+00  0.1526E+02
  12.352  0.6896E+00  0.1527E+02
  12.362  0.7082E+00  0.1528E+02
  12.372  0.7267E+00  0.1529E+02
  12.382  0.7452E+00  0.1529E+02
  12.392  0.7638E+00  0.1530E+02
  12.402  0.7823E+00  0.1531E+02
  12.412  0.8008E+00  0.1532E+02
  12.422  0.8194E+00  0.1533E+02
  12.432  0.8379E+00  0.1533E+02
  12.442  0.8533E+00  0.1534E+02
  12.452  0.8487E+00  0.1535E+02
  12.462  0.8441E+00  0.1536E+02
  12.472  0.8395E+00  0.1537E+02
  12.482  0.8350E+00  0.1538E+02
  12.492  0.8304E+00  0.1538E+02
  12.502  0.8258E+00  0.1539E+02
  12.512  0.8212E+00  0.1540E+02
  12.522  0.8167E+00  0.1541E+02
  12.532  0.8121E+00  0.1542E+02
  12.542  0.8075E+00  0.1542E+02
  12.552  0.8029E+00  0.1543E+02
  12.562  0.7984E+00  0.1544E+02
  12.572  0.7938E+00  0.1545E+02
  12.582  0.7892E+00  0.1546E+02
  12.592  0.7846E+00  0.1546E+02
  12.602  0.7801E+00  0.1547E+02
  12.612  0.7755E+00  0.1548E+02
  12.622  0.7709E+00  0.1549E+02
  12.632  0.7663E+00  0.1550E+02
  12.642  0.7618E+00  0.1550E+02
  12.652  0.7572E+00  0.1551E+02
  12.662  0.7526E+00  0.1552E+02
  12.672  0.7480E+00  0.1553E+02
  12.682  0.7435E+00  0.1553E+02
  12.692  0.7389E+00  0.1554E+02
  12.702  0.7343E+00  0.1555E+02
  12.712  0.7297E+00  0.1556E+02
  12.722  0.7252E+00  0.1556E+02
  12.732  0.7206E+00  0.1557E+02
  12.742  0.7160E+00  0.1558E+02
  12.752  0.7114E+00  0.1558E+02
  12.762  0.7069E+00  0.1559E+02
  12.772  0.7023E+00  0.1560E+02
  12.782  0.6977E+00  0.1561E+02
  12.792  0.6931E+00  0.1561E+02
  12.802  0.6886E+00  0.1562E+02
  12.812  0.6840E+00  0.1563E+02
  12.822  0.6794E+00  0.1563E+02
  12.832  0.6748E+00  0.1564E+02
  12.842  0.6703E+00  0.1565E+02
  12.852  0.6657E+00  0.1565E+02
  12.862  0.6611E+00  0.1566E+02
  12.872  0.6565E+00  0.1567E+02
  12.882  0.6520E+00  0.1567E+02
  12.892  0.6474E+00  0.1568E+02
  12.902  0.6428E+00  0.1569E+02
  12.912  0.6382E+00  0.1569E+02
  12.922  0.6337E+00  0.1570E+02
  12.932  0.6291E+00  0.1570E+02
  12.942  0.6245E+00  0.1571E+02
  12.952  0.6199E+00  0.1572E+02
  12.962  0.6154E+00  0.1572E+02
  12.972  0.6108E+00  0.1573E+02
  12.982  0.6062E+00  0.1573E+02
  12.992  0.6016E+00  0.1574E+02
  13.002  0.5971E+00  0.1575E+02
  13.012  0.5925E+00  0.1575E+02
  13.022  0.5879E+00  0.1576E+02
  13.032  0.5833E+00  0.1576E+02
  13.042  0.5788E+00  0.1577E+02
  13.052  0.5742E+00  0.1578E+02
  13.062  0.5696E+00  0.1578E+02
  13.072  0.5650E+00  0.1579E+02
  13.082  0.5605E+00  0.1579E+02
  13.092  0.5559E+00  0.1580E+02
  13.102  0.5513E+00  0.1580E+02
  13.112  0.5467E+00  0.1581E+02
  13.122  0.5422E+00  0.1582E+02
  13.132  0.5376E+00  0.1582E+02
  13.142  0.3523E+01  0.1586E+02
  13.152  0.6332E+00  0.1586E+02
  13.162  0.5201E+00  0.1587E+02
  13.172  0.5093E+00  0.1587E+02
  13.182  0.4985E+00  0.1588E+02
  13.192  0.4877E+00  0.1588E+02
  13.202  0.3072E+00  0.1589E+02
  13.212  0.3004E+00  0.1589E+02
  13.222  0.2935E+00  0.1589E+02
  13.232  0.2867E+00  0.1589E+02
  13.242  0.2799E+00  0.1590E+02
  13.252  0.2730E+00  0.1590E+02
  13.262  0.2662E+00  0.1590E+02
  13.272  0.2593E+00  0.1590E+02
  13.282  0.2525E+00  0.1591E+02
  13.292  0.2456E+00  0.1591E+02
  13.302  0.2388E+00  0.1591E+02
  13.312  0.2319E+00  0.1591E+02
  13.322  0.2251E+00  0.1592E+02
  13.332  0.2182E+00  0.1592E+02
  13.342  0.2114E+00  0.1592E+02
  13.352  0.2046E+00  0.1592E+02
  13.362  0.1977E+00  0.1593E+02
  13.372  0.1909E+00  0.1593E+02
  13.382  0.1840E+00  0.1593E+02
  13.392  0.1772E+00  0.1593E+02
  13.402  0.1703E+00  0.1593E+02
  13.412  0.1635E+00  0.1593E+02
  13.422  0.1566E+00  0.1594E+02
  13.432  0.1498E+00  0.1594E+02
  13.442  0.1429E+00  0.1594E+02
  13.452  0.1361E+00  0.1594E+02
  13.462  0.1293E+00  0.1594E+02
  13.472  0.1224E+00  0.1594E+02
  13.482  0.1156E+00  0.1594E+02
  13.492  0.1087E+00  0.1594E+02
  13.502  0.1019E+00  0.1595E+02
  13.512  0.9503E-01  0.1595E+02
  13.522  0.8818E-01  0.1595E+02
  13.532  0.8134E-01  0.1595E+02
  13.542  0.7449E-01  0.1595E+02
  13.552  0.6765E-01  0.1595E+02
  13.562  0.6080E-01  0.1595E+02
  13.572  0.5396E-01  0.1595E+02
  13.582  0.4711E-01  0.1595E+02
  13.592  0.4027E-01  0.1595E+02
  13.602  0.3342E-01  0.1595E+02
  13.612  0.2658E-01  0.1595E+02
  13.622  0.1973E-01  0.1595E+02
  13.632  0.1288E-01  0.1595E+02
  13.642  0.6039E-02  0.1595E+02
