# E (eV)  tot(E) 
 -20.632  0.159E-06
 -20.582  0.132E-05
 -20.532  0.842E-05
 -20.482  0.409E-04
 -20.432  0.152E-03
 -20.382  0.432E-03
 -20.332  0.939E-03
 -20.282  0.156E-02
 -20.232  0.198E-02
 -20.182  0.192E-02
 -20.132  0.142E-02
 -20.082  0.805E-03
 -20.032  0.349E-03
 -19.982  0.115E-03
 -19.932  0.292E-04
 -19.882  0.565E-05
 -19.832  0.835E-06
 -19.782  0.944E-07
 -19.732  0.816E-08
 -19.682  0.539E-09
 -19.632  0.272E-10
 -19.582  0.105E-11
 -19.532  0.310E-13
 -19.482  0.338E-15
 -19.432  0.000E+00
 -19.382  0.000E+00
 -19.332  0.000E+00
 -19.282  0.000E+00
 -19.232  0.000E+00
 -19.182  0.000E+00
 -19.132  0.000E+00
 -19.082  0.000E+00
 -19.032  0.000E+00
 -18.982  0.000E+00
 -18.932  0.000E+00
 -18.882  0.000E+00
 -18.832  0.000E+00
 -18.782  0.000E+00
 -18.732  0.000E+00
 -18.682  0.000E+00
 -18.632  0.000E+00
 -18.582  0.000E+00
 -18.532  0.000E+00
 -18.482  0.000E+00
 -18.432  0.000E+00
 -18.382  0.000E+00
 -18.332  0.000E+00
 -18.282  0.000E+00
 -18.232  0.000E+00
 -18.182  0.000E+00
 -18.132  0.000E+00
 -18.082  0.000E+00
 -18.032  0.000E+00
 -17.982  0.000E+00
 -17.932  0.000E+00
 -17.882  0.000E+00
 -17.832  0.000E+00
 -17.782  0.000E+00
 -17.732  0.000E+00
 -17.682  0.000E+00
 -17.632  0.000E+00
 -17.582  0.000E+00
 -17.532  0.000E+00
 -17.482  0.000E+00
 -17.432  0.000E+00
 -17.382  0.000E+00
 -17.332  0.000E+00
 -17.282  0.000E+00
 -17.232  0.000E+00
 -17.182  0.000E+00
 -17.132  0.000E+00
 -17.082  0.000E+00
 -17.032  0.000E+00
 -16.982  0.000E+00
 -16.932  0.000E+00
 -16.882  0.000E+00
 -16.832  0.000E+00
 -16.782  0.000E+00
 -16.732  0.000E+00
 -16.682  0.000E+00
 -16.632  0.000E+00
 -16.582  0.000E+00
 -16.532  0.000E+00
 -16.482  0.000E+00
 -16.432  0.000E+00
 -16.382  0.000E+00
 -16.332  0.000E+00
 -16.282  0.000E+00
 -16.232  0.000E+00
 -16.182  0.000E+00
 -16.132  0.000E+00
 -16.082  0.000E+00
 -16.032  0.000E+00
 -15.982  0.000E+00
 -15.932  0.000E+00
 -15.882  0.000E+00
 -15.832  0.000E+00
 -15.782  0.000E+00
 -15.732  0.000E+00
 -15.682  0.000E+00
 -15.632  0.000E+00
 -15.582  0.000E+00
 -15.532  0.000E+00
 -15.482  0.000E+00
 -15.432  0.000E+00
 -15.382  0.000E+00
 -15.332  0.000E+00
 -15.282  0.000E+00
 -15.232  0.000E+00
 -15.182  0.000E+00
 -15.132  0.000E+00
 -15.082  0.000E+00
 -15.032  0.000E+00
 -14.982  0.000E+00
 -14.932  0.000E+00
 -14.882  0.000E+00
 -14.832  0.000E+00
 -14.782  0.000E+00
 -14.732  0.000E+00
 -14.682  0.000E+00
 -14.632  0.000E+00
 -14.582  0.000E+00
 -14.532  0.000E+00
 -14.482  0.000E+00
 -14.432  0.000E+00
 -14.382  0.000E+00
 -14.332  0.000E+00
 -14.282  0.000E+00
 -14.232  0.000E+00
 -14.182  0.000E+00
 -14.132  0.000E+00
 -14.082  0.000E+00
 -14.032  0.000E+00
 -13.982  0.000E+00
 -13.932  0.000E+00
 -13.882  0.000E+00
 -13.832  0.000E+00
 -13.782  0.000E+00
 -13.732  0.000E+00
 -13.682  0.000E+00
 -13.632  0.000E+00
 -13.582  0.000E+00
 -13.532  0.000E+00
 -13.482  0.000E+00
 -13.432  0.000E+00
 -13.382  0.000E+00
 -13.332  0.000E+00
 -13.282  0.000E+00
 -13.232  0.000E+00
 -13.182  0.000E+00
 -13.132  0.000E+00
 -13.082  0.000E+00
 -13.032  0.000E+00
 -12.982  0.000E+00
 -12.932  0.000E+00
 -12.882  0.000E+00
 -12.832  0.000E+00
 -12.782  0.000E+00
 -12.732  0.000E+00
 -12.682  0.000E+00
 -12.632  0.000E+00
 -12.582  0.000E+00
 -12.532  0.000E+00
 -12.482  0.000E+00
 -12.432  0.000E+00
 -12.382  0.000E+00
 -12.332  0.000E+00
 -12.282  0.000E+00
 -12.232  0.000E+00
 -12.182  0.000E+00
 -12.132  0.000E+00
 -12.082  0.000E+00
 -12.032  0.000E+00
 -11.982  0.000E+00
 -11.932  0.000E+00
 -11.882  0.000E+00
 -11.832  0.000E+00
 -11.782  0.000E+00
 -11.732  0.000E+00
 -11.682  0.000E+00
 -11.632  0.000E+00
 -11.582  0.000E+00
 -11.532  0.000E+00
 -11.482  0.000E+00
 -11.432  0.000E+00
 -11.382  0.000E+00
 -11.332  0.000E+00
 -11.282  0.000E+00
 -11.232  0.000E+00
 -11.182  0.000E+00
 -11.132  0.000E+00
 -11.082  0.000E+00
 -11.032  0.000E+00
 -10.982  0.000E+00
 -10.932  0.000E+00
 -10.882  0.000E+00
 -10.832  0.000E+00
 -10.782  0.000E+00
 -10.732  0.000E+00
 -10.682  0.000E+00
 -10.632  0.000E+00
 -10.582  0.000E+00
 -10.532  0.000E+00
 -10.482  0.000E+00
 -10.432  0.000E+00
 -10.382  0.000E+00
 -10.332  0.000E+00
 -10.282  0.000E+00
 -10.232  0.000E+00
 -10.182  0.000E+00
 -10.132  0.000E+00
 -10.082  0.000E+00
 -10.032  0.000E+00
  -9.982  0.000E+00
  -9.932  0.000E+00
  -9.882  0.000E+00
  -9.832  0.000E+00
  -9.782  0.000E+00
  -9.732  0.000E+00
  -9.682  0.000E+00
  -9.632  0.000E+00
  -9.582  0.000E+00
  -9.532  0.000E+00
  -9.482  0.000E+00
  -9.432  0.000E+00
  -9.382  0.000E+00
  -9.332  0.000E+00
  -9.282  0.000E+00
  -9.232  0.000E+00
  -9.182  0.000E+00
  -9.132  0.000E+00
  -9.082  0.000E+00
  -9.032  0.000E+00
  -8.982  0.000E+00
  -8.932  0.000E+00
  -8.882  0.000E+00
  -8.832  0.000E+00
  -8.782  0.000E+00
  -8.732  0.000E+00
  -8.682  0.000E+00
  -8.632  0.000E+00
  -8.582  0.000E+00
  -8.532  0.000E+00
  -8.482  0.000E+00
  -8.432  0.000E+00
  -8.382  0.000E+00
  -8.332  0.000E+00
  -8.282  0.000E+00
  -8.232  0.000E+00
  -8.182  0.000E+00
  -8.132  0.000E+00
  -8.082  0.000E+00
  -8.032  0.000E+00
  -7.982  0.000E+00
  -7.932  0.000E+00
  -7.882  0.000E+00
  -7.832  0.000E+00
  -7.782  0.000E+00
  -7.732  0.000E+00
  -7.682  0.000E+00
  -7.632  0.000E+00
  -7.582  0.000E+00
  -7.532  0.000E+00
  -7.482  0.000E+00
  -7.432  0.000E+00
  -7.382  0.000E+00
  -7.332  0.000E+00
  -7.282  0.000E+00
  -7.232  0.000E+00
  -7.182  0.000E+00
  -7.132  0.000E+00
  -7.082  0.000E+00
  -7.032  0.000E+00
  -6.982  0.000E+00
  -6.932  0.000E+00
  -6.882  0.000E+00
  -6.832  0.000E+00
  -6.782  0.000E+00
  -6.732  0.000E+00
  -6.682  0.000E+00
  -6.632  0.000E+00
  -6.582  0.527E-12
  -6.532  0.259E-10
  -6.482  0.846E-09
  -6.432  0.211E-07
  -6.382  0.406E-06
  -6.332  0.602E-05
  -6.282  0.690E-04
  -6.232  0.614E-03
  -6.182  0.425E-02
  -6.132  0.231E-01
  -6.082  0.986E-01
  -6.032  0.335E+00
  -5.982  0.910E+00
  -5.932  0.200E+01
  -5.882  0.357E+01
  -5.832  0.520E+01
  -5.782  0.619E+01
  -5.732  0.600E+01
  -5.682  0.471E+01
  -5.632  0.299E+01
  -5.582  0.152E+01
  -5.532  0.616E+00
  -5.482  0.198E+00
  -5.432  0.501E-01
  -5.382  0.995E-02
  -5.332  0.154E-02
  -5.282  0.186E-03
  -5.232  0.174E-04
  -5.182  0.126E-05
  -5.132  0.705E-07
  -5.082  0.304E-08
  -5.032  0.100E-09
  -4.982  0.248E-11
  -4.932  0.000E+00
  -4.882  0.000E+00
  -4.832  0.000E+00
  -4.782  0.000E+00
  -4.732  0.000E+00
  -4.682  0.000E+00
  -4.632  0.000E+00
  -4.582  0.000E+00
  -4.532  0.000E+00
  -4.482  0.000E+00
  -4.432  0.000E+00
  -4.382  0.000E+00
  -4.332  0.000E+00
  -4.282  0.000E+00
  -4.232  0.166E-12
  -4.182  0.777E-11
  -4.132  0.265E-09
  -4.082  0.692E-08
  -4.032  0.139E-06
  -3.982  0.214E-05
  -3.932  0.256E-04
  -3.882  0.236E-03
  -3.832  0.170E-02
  -3.782  0.956E-02
  -3.732  0.424E-01
  -3.682  0.150E+00
  -3.632  0.428E+00
  -3.582  0.100E+01
  -3.532  0.194E+01
  -3.482  0.316E+01
  -3.432  0.433E+01
  -3.382  0.501E+01
  -3.332  0.493E+01
  -3.282  0.435E+01
  -3.232  0.394E+01
  -3.182  0.425E+01
  -3.132  0.523E+01
  -3.082  0.630E+01
  -3.032  0.695E+01
  -2.982  0.713E+01
  -2.932  0.718E+01
  -2.882  0.736E+01
  -2.832  0.750E+01
  -2.782  0.711E+01
  -2.732  0.590E+01
  -2.682  0.410E+01
  -2.632  0.232E+01
  -2.582  0.105E+01
  -2.532  0.373E+00
  -2.482  0.104E+00
  -2.432  0.233E-01
  -2.382  0.662E-02
  -2.332  0.829E-02
  -2.282  0.162E-01
  -2.232  0.257E-01
  -2.182  0.313E-01
  -2.132  0.297E-01
  -2.082  0.239E-01
  -2.032  0.209E-01
  -1.982  0.253E-01
  -1.932  0.344E-01
  -1.882  0.406E-01
  -1.832  0.386E-01
  -1.782  0.308E-01
  -1.732  0.232E-01
  -1.682  0.189E-01
  -1.632  0.162E-01
  -1.582  0.135E-01
  -1.532  0.117E-01
  -1.482  0.134E-01
  -1.432  0.202E-01
  -1.382  0.316E-01
  -1.332  0.459E-01
  -1.282  0.619E-01
  -1.232  0.817E-01
  -1.182  0.109E+00
  -1.132  0.140E+00
  -1.082  0.166E+00
  -1.032  0.178E+00
  -0.982  0.183E+00
  -0.932  0.196E+00
  -0.882  0.229E+00
  -0.832  0.274E+00
  -0.782  0.317E+00
  -0.732  0.347E+00
  -0.682  0.362E+00
  -0.632  0.355E+00
  -0.582  0.320E+00
  -0.532  0.266E+00
  -0.482  0.208E+00
  -0.432  0.162E+00
  -0.382  0.131E+00
  -0.332  0.115E+00
  -0.282  0.111E+00
  -0.232  0.113E+00
  -0.182  0.114E+00
  -0.132  0.109E+00
  -0.082  0.963E-01
  -0.032  0.812E-01
   0.018  0.699E-01
   0.068  0.699E-01
   0.118  0.862E-01
   0.168  0.115E+00
   0.218  0.140E+00
   0.268  0.150E+00
   0.318  0.141E+00
   0.368  0.126E+00
   0.418  0.119E+00
   0.468  0.124E+00
   0.518  0.130E+00
   0.568  0.127E+00
   0.618  0.122E+00
   0.668  0.134E+00
   0.718  0.169E+00
   0.768  0.215E+00
   0.818  0.250E+00
   0.868  0.271E+00
   0.918  0.297E+00
   0.968  0.347E+00
   1.018  0.413E+00
   1.068  0.463E+00
   1.118  0.464E+00
   1.168  0.421E+00
   1.218  0.372E+00
   1.268  0.351E+00
   1.318  0.355E+00
   1.368  0.359E+00
   1.418  0.349E+00
   1.468  0.328E+00
   1.518  0.303E+00
   1.568  0.272E+00
   1.618  0.238E+00
   1.668  0.218E+00
   1.718  0.224E+00
   1.768  0.248E+00
   1.818  0.268E+00
   1.868  0.272E+00
   1.918  0.265E+00
   1.968  0.258E+00
   2.018  0.257E+00
   2.068  0.268E+00
   2.118  0.302E+00
   2.168  0.374E+00
   2.218  0.468E+00
   2.268  0.528E+00
   2.318  0.507E+00
   2.368  0.412E+00
   2.418  0.306E+00
   2.468  0.238E+00
   2.518  0.217E+00
   2.568  0.217E+00
   2.618  0.216E+00
   2.668  0.209E+00
   2.718  0.196E+00
   2.768  0.174E+00
   2.818  0.141E+00
   2.868  0.104E+00
   2.918  0.758E-01
   2.968  0.646E-01
   3.018  0.696E-01
   3.068  0.845E-01
   3.118  0.104E+00
   3.168  0.124E+00
   3.218  0.145E+00
   3.268  0.161E+00
   3.318  0.162E+00
   3.368  0.145E+00
   3.418  0.126E+00
   3.468  0.126E+00
   3.518  0.152E+00
   3.568  0.190E+00
   3.618  0.212E+00
   3.668  0.206E+00
   3.718  0.178E+00
   3.768  0.144E+00
   3.818  0.117E+00
   3.868  0.105E+00
   3.918  0.110E+00
   3.968  0.134E+00
   4.018  0.165E+00
   4.068  0.178E+00
   4.118  0.157E+00
   4.168  0.114E+00
   4.218  0.738E-01
   4.268  0.616E-01
   4.318  0.861E-01
   4.368  0.138E+00
   4.418  0.189E+00
   4.468  0.211E+00
   4.518  0.190E+00
   4.568  0.145E+00
   4.618  0.111E+00
   4.668  0.120E+00
   4.718  0.175E+00
   4.768  0.244E+00
   4.818  0.284E+00
   4.868  0.279E+00
   4.918  0.246E+00
   4.968  0.206E+00
   5.018  0.167E+00
   5.068  0.130E+00
   5.118  0.117E+00
   5.168  0.152E+00
   5.218  0.238E+00
   5.268  0.350E+00
   5.318  0.452E+00
   5.368  0.514E+00
   5.418  0.515E+00
   5.468  0.452E+00
   5.518  0.353E+00
   5.568  0.269E+00
   5.618  0.231E+00
   5.668  0.239E+00
   5.718  0.302E+00
   5.768  0.472E+00
   5.818  0.781E+00
   5.868  0.114E+01
   5.918  0.136E+01
   5.968  0.133E+01
   6.018  0.115E+01
   6.068  0.994E+00
   6.118  0.930E+00
   6.168  0.885E+00
   6.218  0.798E+00
   6.268  0.682E+00
   6.318  0.580E+00
   6.368  0.506E+00
   6.418  0.461E+00
   6.468  0.448E+00
   6.518  0.447E+00
   6.568  0.408E+00
   6.618  0.309E+00
   6.668  0.184E+00
   6.718  0.851E-01
   6.768  0.301E-01
   6.818  0.815E-02
   6.868  0.168E-02
   6.918  0.266E-03
   6.968  0.320E-04
