# E (eV)  ldosup(E)  ldosdw(E) pdosup(E)  pdosdw(E)  pdosup(E)  pdosdw(E)  pdosup(E)  pdosdw(E) 
   8.000  0.000E+00  0.000E+00  0.000E+00  0.000E+00  0.000E+00  0.000E+00  0.000E+00  0.000E+00
   8.100  0.000E+00  0.000E+00  0.000E+00  0.000E+00  0.000E+00  0.000E+00  0.000E+00  0.000E+00
   8.200  0.000E+00  0.000E+00  0.000E+00  0.000E+00  0.000E+00  0.000E+00  0.000E+00  0.000E+00
   8.300  0.000E+00  0.000E+00  0.000E+00  0.000E+00  0.000E+00  0.000E+00  0.000E+00  0.000E+00
   8.400  0.000E+00  0.000E+00  0.000E+00  0.000E+00  0.000E+00  0.000E+00  0.000E+00  0.000E+00
   8.500  0.000E+00  0.000E+00  0.000E+00  0.000E+00  0.000E+00  0.000E+00  0.000E+00  0.000E+00
   8.600  0.000E+00  0.000E+00  0.000E+00  0.000E+00  0.000E+00  0.000E+00  0.000E+00  0.000E+00
   8.700  0.000E+00  0.000E+00  0.000E+00  0.000E+00  0.000E+00  0.000E+00  0.000E+00  0.000E+00
   8.800  0.000E+00  0.000E+00  0.000E+00  0.000E+00  0.000E+00  0.000E+00  0.000E+00  0.000E+00
   8.900  0.000E+00  0.000E+00  0.000E+00  0.000E+00  0.000E+00  0.000E+00  0.000E+00  0.000E+00
   9.000  0.000E+00  0.000E+00  0.000E+00  0.000E+00  0.000E+00  0.000E+00  0.000E+00  0.000E+00
   9.100  0.000E+00  0.000E+00  0.000E+00  0.000E+00  0.000E+00  0.000E+00  0.000E+00  0.000E+00
   9.200  0.000E+00  0.000E+00  0.000E+00  0.000E+00  0.000E+00  0.000E+00  0.000E+00  0.000E+00
   9.300  0.000E+00  0.000E+00  0.000E+00  0.000E+00  0.000E+00  0.000E+00  0.000E+00  0.000E+00
   9.400  0.000E+00  0.000E+00  0.000E+00  0.000E+00  0.000E+00  0.000E+00  0.000E+00  0.000E+00
   9.500  0.000E+00  0.000E+00  0.000E+00  0.000E+00  0.000E+00  0.000E+00  0.000E+00  0.000E+00
   9.600  0.000E+00  0.000E+00  0.000E+00  0.000E+00  0.000E+00  0.000E+00  0.000E+00  0.000E+00
   9.700  0.196E-04  0.120E-04  0.652E-05  0.402E-05  0.652E-05  0.402E-05  0.652E-05  0.402E-05
   9.800  0.381E-04  0.294E-04  0.127E-04  0.980E-05  0.127E-04  0.980E-05  0.127E-04  0.980E-05
   9.900  0.605E-04  0.504E-04  0.202E-04  0.168E-04  0.202E-04  0.168E-04  0.202E-04  0.168E-04
  10.000  0.947E-04  0.804E-04  0.316E-04  0.268E-04  0.316E-04  0.268E-04  0.316E-04  0.268E-04
  10.100  0.126E-03  0.116E-03  0.421E-04  0.387E-04  0.421E-04  0.387E-04  0.421E-04  0.387E-04
  10.200  0.141E-03  0.147E-03  0.472E-04  0.490E-04  0.472E-04  0.490E-04  0.472E-04  0.490E-04
  10.300  0.173E-03  0.163E-03  0.576E-04  0.543E-04  0.576E-04  0.543E-04  0.576E-04  0.543E-04
  10.400  0.208E-03  0.197E-03  0.692E-04  0.656E-04  0.692E-04  0.656E-04  0.692E-04  0.656E-04
  10.500  0.246E-03  0.234E-03  0.820E-04  0.781E-04  0.820E-04  0.781E-04  0.820E-04  0.781E-04
  10.600  0.288E-03  0.275E-03  0.961E-04  0.918E-04  0.961E-04  0.918E-04  0.961E-04  0.918E-04
  10.700  0.326E-03  0.320E-03  0.109E-03  0.107E-03  0.109E-03  0.107E-03  0.109E-03  0.107E-03
  10.800  0.370E-03  0.358E-03  0.123E-03  0.119E-03  0.123E-03  0.119E-03  0.123E-03  0.119E-03
  10.900  0.409E-03  0.400E-03  0.136E-03  0.133E-03  0.136E-03  0.133E-03  0.136E-03  0.133E-03
  11.000  0.440E-03  0.437E-03  0.147E-03  0.146E-03  0.147E-03  0.146E-03  0.147E-03  0.146E-03
  11.100  0.474E-03  0.466E-03  0.158E-03  0.155E-03  0.158E-03  0.155E-03  0.158E-03  0.155E-03
  11.200  0.515E-03  0.498E-03  0.172E-03  0.166E-03  0.172E-03  0.166E-03  0.172E-03  0.166E-03
  11.300  0.560E-03  0.537E-03  0.187E-03  0.179E-03  0.187E-03  0.179E-03  0.187E-03  0.179E-03
  11.400  0.608E-03  0.580E-03  0.203E-03  0.193E-03  0.203E-03  0.193E-03  0.203E-03  0.193E-03
  11.500  0.659E-03  0.626E-03  0.220E-03  0.209E-03  0.220E-03  0.209E-03  0.220E-03  0.209E-03
  11.600  0.712E-03  0.673E-03  0.237E-03  0.224E-03  0.237E-03  0.224E-03  0.237E-03  0.224E-03
  11.700  0.751E-03  0.723E-03  0.250E-03  0.241E-03  0.250E-03  0.241E-03  0.250E-03  0.241E-03
  11.800  0.794E-03  0.756E-03  0.265E-03  0.252E-03  0.265E-03  0.252E-03  0.265E-03  0.252E-03
  11.900  0.850E-03  0.788E-03  0.283E-03  0.263E-03  0.283E-03  0.263E-03  0.283E-03  0.263E-03
  12.000  0.901E-03  0.823E-03  0.300E-03  0.274E-03  0.300E-03  0.274E-03  0.300E-03  0.274E-03
  12.100  0.944E-03  0.861E-03  0.315E-03  0.287E-03  0.315E-03  0.287E-03  0.315E-03  0.287E-03
  12.200  0.988E-03  0.896E-03  0.329E-03  0.299E-03  0.329E-03  0.299E-03  0.329E-03  0.299E-03
  12.300  0.103E-02  0.927E-03  0.345E-03  0.309E-03  0.345E-03  0.309E-03  0.345E-03  0.309E-03
  12.400  0.109E-02  0.959E-03  0.362E-03  0.320E-03  0.362E-03  0.320E-03  0.362E-03  0.320E-03
  12.500  0.114E-02  0.990E-03  0.381E-03  0.330E-03  0.381E-03  0.330E-03  0.381E-03  0.330E-03
  12.600  0.120E-02  0.102E-02  0.402E-03  0.341E-03  0.402E-03  0.341E-03  0.402E-03  0.341E-03
  12.700  0.127E-02  0.106E-02  0.424E-03  0.352E-03  0.424E-03  0.352E-03  0.424E-03  0.352E-03
  12.800  0.143E-02  0.109E-02  0.478E-03  0.364E-03  0.478E-03  0.364E-03  0.478E-03  0.364E-03
  12.900  0.157E-02  0.112E-02  0.523E-03  0.375E-03  0.523E-03  0.375E-03  0.523E-03  0.375E-03
  13.000  0.158E-02  0.115E-02  0.527E-03  0.384E-03  0.527E-03  0.384E-03  0.527E-03  0.384E-03
  13.100  0.158E-02  0.118E-02  0.525E-03  0.393E-03  0.525E-03  0.393E-03  0.525E-03  0.393E-03
  13.200  0.158E-02  0.120E-02  0.527E-03  0.400E-03  0.527E-03  0.400E-03  0.527E-03  0.400E-03
  13.300  0.174E-02  0.122E-02  0.580E-03  0.406E-03  0.580E-03  0.406E-03  0.580E-03  0.406E-03
  13.400  0.184E-02  0.124E-02  0.613E-03  0.415E-03  0.613E-03  0.415E-03  0.613E-03  0.415E-03
  13.500  0.196E-02  0.127E-02  0.652E-03  0.422E-03  0.652E-03  0.422E-03  0.652E-03  0.422E-03
  13.600  0.281E-02  0.128E-02  0.935E-03  0.426E-03  0.935E-03  0.426E-03  0.935E-03  0.426E-03
  13.700  0.166E-02  0.129E-02  0.552E-03  0.429E-03  0.552E-03  0.429E-03  0.552E-03  0.429E-03
  13.800  0.109E-02  0.130E-02  0.363E-03  0.433E-03  0.363E-03  0.433E-03  0.363E-03  0.433E-03
  13.900  0.777E-03  0.131E-02  0.259E-03  0.438E-03  0.259E-03  0.438E-03  0.259E-03  0.438E-03
  14.000  0.681E-03  0.132E-02  0.227E-03  0.441E-03  0.227E-03  0.441E-03  0.227E-03  0.441E-03
  14.100  0.462E-03  0.132E-02  0.154E-03  0.441E-03  0.154E-03  0.441E-03  0.154E-03  0.441E-03
  14.200  0.392E-03  0.134E-02  0.131E-03  0.447E-03  0.131E-03  0.447E-03  0.131E-03  0.447E-03
  14.300  0.416E-03  0.140E-02  0.139E-03  0.468E-03  0.139E-03  0.468E-03  0.139E-03  0.468E-03
  14.400  0.239E-02  0.140E-02  0.797E-03  0.466E-03  0.797E-03  0.466E-03  0.797E-03  0.466E-03
  14.500  0.171E-02  0.136E-02  0.568E-03  0.454E-03  0.568E-03  0.454E-03  0.568E-03  0.454E-03
  14.600  0.830E-03  0.132E-02  0.277E-03  0.439E-03  0.277E-03  0.439E-03  0.277E-03  0.439E-03
  14.700  0.909E-03  0.130E-02  0.303E-03  0.434E-03  0.303E-03  0.434E-03  0.303E-03  0.434E-03
  14.800  0.105E-02  0.130E-02  0.350E-03  0.433E-03  0.350E-03  0.433E-03  0.350E-03  0.433E-03
  14.900  0.132E-02  0.128E-02  0.440E-03  0.428E-03  0.440E-03  0.428E-03  0.440E-03  0.428E-03
  15.000  0.162E-02  0.125E-02  0.539E-03  0.416E-03  0.539E-03  0.416E-03  0.539E-03  0.416E-03
  15.100  0.212E-02  0.122E-02  0.708E-03  0.405E-03  0.708E-03  0.405E-03  0.708E-03  0.405E-03
  15.200  0.259E-02  0.142E-02  0.864E-03  0.474E-03  0.864E-03  0.474E-03  0.864E-03  0.474E-03
  15.300  0.188E-02  0.142E-02  0.627E-03  0.473E-03  0.627E-03  0.473E-03  0.627E-03  0.473E-03
  15.400  0.112E-02  0.127E-02  0.372E-03  0.423E-03  0.372E-03  0.423E-03  0.372E-03  0.423E-03
  15.500  0.826E-03  0.914E-03  0.275E-03  0.305E-03  0.275E-03  0.305E-03  0.275E-03  0.305E-03
  15.600  0.617E-03  0.799E-03  0.206E-03  0.266E-03  0.206E-03  0.266E-03  0.206E-03  0.266E-03
  15.700  0.494E-03  0.565E-03  0.165E-03  0.188E-03  0.165E-03  0.188E-03  0.165E-03  0.188E-03
  15.800  0.424E-03  0.357E-03  0.141E-03  0.119E-03  0.141E-03  0.119E-03  0.141E-03  0.119E-03
  15.900  0.402E-03  0.319E-03  0.134E-03  0.106E-03  0.134E-03  0.106E-03  0.134E-03  0.106E-03
  16.000  0.392E-03  0.204E-03  0.131E-03  0.679E-04  0.131E-03  0.679E-04  0.131E-03  0.679E-04
  16.100  0.401E-03  0.916E-03  0.134E-03  0.305E-03  0.134E-03  0.305E-03  0.134E-03  0.305E-03
  16.200  0.437E-03  0.173E-02  0.146E-03  0.576E-03  0.146E-03  0.576E-03  0.146E-03  0.576E-03
  16.300  0.471E-03  0.181E-02  0.157E-03  0.604E-03  0.157E-03  0.604E-03  0.157E-03  0.604E-03
  16.400  0.505E-03  0.167E-02  0.168E-03  0.556E-03  0.168E-03  0.556E-03  0.168E-03  0.556E-03
  16.500  0.432E-03  0.172E-02  0.144E-03  0.573E-03  0.144E-03  0.573E-03  0.144E-03  0.573E-03
  16.600  0.381E-03  0.163E-02  0.127E-03  0.545E-03  0.127E-03  0.545E-03  0.127E-03  0.545E-03
  16.700  0.465E-03  0.144E-02  0.155E-03  0.481E-03  0.155E-03  0.481E-03  0.155E-03  0.481E-03
  16.800  0.495E-03  0.134E-02  0.165E-03  0.447E-03  0.165E-03  0.447E-03  0.165E-03  0.447E-03
  16.900  0.455E-03  0.140E-02  0.152E-03  0.468E-03  0.152E-03  0.468E-03  0.152E-03  0.468E-03
  17.000  0.458E-03  0.165E-02  0.153E-03  0.551E-03  0.153E-03  0.551E-03  0.153E-03  0.551E-03
  17.100  0.421E-03  0.205E-02  0.140E-03  0.684E-03  0.140E-03  0.684E-03  0.140E-03  0.684E-03
  17.200  0.385E-03  0.171E-02  0.128E-03  0.569E-03  0.128E-03  0.569E-03  0.128E-03  0.569E-03
  17.300  0.365E-03  0.103E-02  0.122E-03  0.343E-03  0.122E-03  0.343E-03  0.122E-03  0.343E-03
  17.400  0.362E-03  0.756E-03  0.121E-03  0.252E-03  0.121E-03  0.252E-03  0.121E-03  0.252E-03
  17.500  0.350E-03  0.522E-03  0.117E-03  0.174E-03  0.117E-03  0.174E-03  0.117E-03  0.174E-03
  17.600  0.325E-03  0.306E-03  0.108E-03  0.102E-03  0.108E-03  0.102E-03  0.108E-03  0.102E-03
  17.700  0.264E-03  0.209E-03  0.881E-04  0.698E-04  0.881E-04  0.698E-04  0.881E-04  0.698E-04
  17.800  0.253E-03  0.145E-03  0.843E-04  0.484E-04  0.843E-04  0.484E-04  0.843E-04  0.484E-04
  17.900  0.251E-03  0.117E-03  0.835E-04  0.389E-04  0.835E-04  0.389E-04  0.835E-04  0.389E-04
  18.000  0.252E-03  0.880E-04  0.839E-04  0.293E-04  0.839E-04  0.293E-04  0.839E-04  0.293E-04
  18.100  0.249E-03  0.912E-04  0.830E-04  0.304E-04  0.830E-04  0.304E-04  0.830E-04  0.304E-04
  18.200  0.244E-03  0.116E-03  0.812E-04  0.387E-04  0.812E-04  0.387E-04  0.812E-04  0.387E-04
  18.300  0.249E-03  0.139E-03  0.830E-04  0.463E-04  0.830E-04  0.463E-04  0.830E-04  0.463E-04
  18.400  0.249E-03  0.168E-03  0.831E-04  0.559E-04  0.831E-04  0.559E-04  0.831E-04  0.559E-04
  18.500  0.248E-03  0.173E-03  0.827E-04  0.578E-04  0.827E-04  0.578E-04  0.827E-04  0.578E-04
  18.600  0.246E-03  0.197E-03  0.818E-04  0.658E-04  0.818E-04  0.658E-04  0.818E-04  0.658E-04
  18.700  0.241E-03  0.236E-03  0.803E-04  0.788E-04  0.803E-04  0.788E-04  0.803E-04  0.788E-04
  18.800  0.233E-03  0.283E-03  0.776E-04  0.942E-04  0.776E-04  0.942E-04  0.776E-04  0.942E-04
  18.900  0.219E-03  0.273E-03  0.730E-04  0.911E-04  0.730E-04  0.911E-04  0.730E-04  0.911E-04
  19.000  0.210E-03  0.263E-03  0.700E-04  0.878E-04  0.700E-04  0.878E-04  0.700E-04  0.878E-04
  19.100  0.200E-03  0.287E-03  0.666E-04  0.955E-04  0.666E-04  0.955E-04  0.666E-04  0.955E-04
  19.200  0.190E-03  0.262E-03  0.632E-04  0.872E-04  0.632E-04  0.872E-04  0.632E-04  0.872E-04
  19.300  0.182E-03  0.219E-03  0.606E-04  0.729E-04  0.606E-04  0.729E-04  0.606E-04  0.729E-04
  19.400  0.173E-03  0.186E-03  0.578E-04  0.619E-04  0.578E-04  0.619E-04  0.578E-04  0.619E-04
  19.500  0.165E-03  0.134E-03  0.550E-04  0.446E-04  0.550E-04  0.446E-04  0.550E-04  0.446E-04
  19.600  0.156E-03  0.885E-04  0.521E-04  0.295E-04  0.521E-04  0.295E-04  0.521E-04  0.295E-04
  19.700  0.150E-03  0.101E-03  0.499E-04  0.336E-04  0.499E-04  0.336E-04  0.499E-04  0.336E-04
  19.800  0.140E-03  0.196E-03  0.466E-04  0.652E-04  0.466E-04  0.652E-04  0.466E-04  0.652E-04
  19.900  0.133E-03  0.294E-03  0.442E-04  0.978E-04  0.442E-04  0.978E-04  0.442E-04  0.978E-04
  20.000  0.126E-03  0.238E-03  0.420E-04  0.792E-04  0.420E-04  0.792E-04  0.420E-04  0.792E-04
  20.100  0.119E-03  0.212E-03  0.398E-04  0.708E-04  0.398E-04  0.708E-04  0.398E-04  0.708E-04
  20.200  0.113E-03  0.175E-03  0.377E-04  0.585E-04  0.377E-04  0.585E-04  0.377E-04  0.585E-04
  20.300  0.107E-03  0.166E-03  0.356E-04  0.553E-04  0.356E-04  0.553E-04  0.356E-04  0.553E-04
  20.400  0.101E-03  0.169E-03  0.336E-04  0.564E-04  0.336E-04  0.564E-04  0.336E-04  0.564E-04
  20.500  0.945E-04  0.159E-03  0.315E-04  0.529E-04  0.315E-04  0.529E-04  0.315E-04  0.529E-04
  20.600  0.885E-04  0.151E-03  0.295E-04  0.502E-04  0.295E-04  0.502E-04  0.295E-04  0.502E-04
  20.700  0.833E-04  0.151E-03  0.278E-04  0.503E-04  0.278E-04  0.503E-04  0.278E-04  0.503E-04
  20.800  0.782E-04  0.150E-03  0.261E-04  0.499E-04  0.261E-04  0.499E-04  0.261E-04  0.499E-04
  20.900  0.736E-04  0.146E-03  0.245E-04  0.487E-04  0.245E-04  0.487E-04  0.245E-04  0.487E-04
  21.000  0.693E-04  0.139E-03  0.231E-04  0.462E-04  0.231E-04  0.462E-04  0.231E-04  0.462E-04
  21.100  0.652E-04  0.129E-03  0.217E-04  0.429E-04  0.217E-04  0.429E-04  0.217E-04  0.429E-04
  21.200  0.628E-04  0.119E-03  0.209E-04  0.396E-04  0.209E-04  0.396E-04  0.209E-04  0.396E-04
  21.300  0.587E-04  0.112E-03  0.196E-04  0.372E-04  0.196E-04  0.372E-04  0.196E-04  0.372E-04
  21.400  0.556E-04  0.105E-03  0.185E-04  0.350E-04  0.185E-04  0.350E-04  0.185E-04  0.350E-04
  21.500  0.525E-04  0.983E-04  0.175E-04  0.328E-04  0.175E-04  0.328E-04  0.175E-04  0.328E-04
  21.600  0.495E-04  0.923E-04  0.165E-04  0.308E-04  0.165E-04  0.308E-04  0.165E-04  0.308E-04
  21.700  0.466E-04  0.871E-04  0.155E-04  0.290E-04  0.155E-04  0.290E-04  0.155E-04  0.290E-04
  21.800  0.437E-04  0.825E-04  0.146E-04  0.275E-04  0.146E-04  0.275E-04  0.146E-04  0.275E-04
  21.900  0.409E-04  0.780E-04  0.136E-04  0.260E-04  0.136E-04  0.260E-04  0.136E-04  0.260E-04
  22.000  0.382E-04  0.736E-04  0.127E-04  0.245E-04  0.127E-04  0.245E-04  0.127E-04  0.245E-04
  22.100  0.360E-04  0.678E-04  0.120E-04  0.226E-04  0.120E-04  0.226E-04  0.120E-04  0.226E-04
  22.200  0.335E-04  0.631E-04  0.112E-04  0.210E-04  0.112E-04  0.210E-04  0.112E-04  0.210E-04
  22.300  0.311E-04  0.587E-04  0.104E-04  0.196E-04  0.104E-04  0.196E-04  0.104E-04  0.196E-04
  22.400  0.289E-04  0.550E-04  0.962E-05  0.183E-04  0.962E-05  0.183E-04  0.962E-05  0.183E-04
  22.500  0.267E-04  0.531E-04  0.890E-05  0.177E-04  0.890E-05  0.177E-04  0.890E-05  0.177E-04
  22.600  0.248E-04  0.487E-04  0.827E-05  0.162E-04  0.827E-05  0.162E-04  0.827E-05  0.162E-04
  22.700  0.232E-04  0.465E-04  0.775E-05  0.155E-04  0.775E-05  0.155E-04  0.775E-05  0.155E-04
  22.800  0.235E-04  0.444E-04  0.782E-05  0.148E-04  0.782E-05  0.148E-04  0.782E-05  0.148E-04
  22.900  0.213E-04  0.422E-04  0.709E-05  0.141E-04  0.709E-05  0.141E-04  0.709E-05  0.141E-04
  23.000  0.201E-04  0.401E-04  0.669E-05  0.134E-04  0.669E-05  0.134E-04  0.669E-05  0.134E-04
  23.100  0.185E-04  0.380E-04  0.615E-05  0.127E-04  0.615E-05  0.127E-04  0.615E-05  0.127E-04
  23.200  0.174E-04  0.360E-04  0.578E-05  0.120E-04  0.578E-05  0.120E-04  0.578E-05  0.120E-04
  23.300  0.163E-04  0.340E-04  0.542E-05  0.113E-04  0.542E-05  0.113E-04  0.542E-05  0.113E-04
  23.400  0.152E-04  0.320E-04  0.505E-05  0.107E-04  0.505E-05  0.107E-04  0.505E-05  0.107E-04
  23.500  0.141E-04  0.304E-04  0.470E-05  0.101E-04  0.470E-05  0.101E-04  0.470E-05  0.101E-04
  23.600  0.130E-04  0.284E-04  0.432E-05  0.948E-05  0.432E-05  0.948E-05  0.432E-05  0.948E-05
  23.700  0.118E-04  0.265E-04  0.394E-05  0.884E-05  0.394E-05  0.884E-05  0.394E-05  0.884E-05
  23.800  0.108E-04  0.257E-04  0.359E-05  0.858E-05  0.359E-05  0.858E-05  0.359E-05  0.858E-05
  23.900  0.978E-05  0.254E-04  0.326E-05  0.846E-05  0.326E-05  0.846E-05  0.326E-05  0.846E-05
  24.000  0.886E-05  0.224E-04  0.295E-05  0.747E-05  0.295E-05  0.747E-05  0.295E-05  0.747E-05
  24.100  0.802E-05  0.212E-04  0.267E-05  0.707E-05  0.267E-05  0.707E-05  0.267E-05  0.707E-05
  24.200  0.723E-05  0.208E-04  0.241E-05  0.692E-05  0.241E-05  0.692E-05  0.241E-05  0.692E-05
  24.300  0.651E-05  0.179E-04  0.217E-05  0.597E-05  0.217E-05  0.597E-05  0.217E-05  0.597E-05
  24.400  0.584E-05  0.168E-04  0.195E-05  0.560E-05  0.195E-05  0.560E-05  0.195E-05  0.560E-05
  24.500  0.529E-05  0.157E-04  0.176E-05  0.523E-05  0.176E-05  0.523E-05  0.176E-05  0.523E-05
  24.600  0.726E-05  0.146E-04  0.242E-05  0.486E-05  0.242E-05  0.486E-05  0.242E-05  0.486E-05
  24.700  0.563E-05  0.135E-04  0.188E-05  0.449E-05  0.188E-05  0.449E-05  0.188E-05  0.449E-05
  24.800  0.703E-05  0.123E-04  0.234E-05  0.409E-05  0.234E-05  0.409E-05  0.234E-05  0.409E-05
  24.900  0.170E-04  0.112E-04  0.568E-05  0.372E-05  0.568E-05  0.372E-05  0.568E-05  0.372E-05
  25.000  0.359E-04  0.101E-04  0.120E-04  0.337E-05  0.120E-04  0.337E-05  0.120E-04  0.337E-05
  25.100  0.621E-04  0.915E-05  0.207E-04  0.305E-05  0.207E-04  0.305E-05  0.207E-04  0.305E-05
