# E (eV)  ldosup(E)  ldosdw(E) pdosup(E)  pdosdw(E) 
   8.000  0.000E+00  0.000E+00  0.000E+00  0.000E+00
   8.100  0.000E+00  0.000E+00  0.000E+00  0.000E+00
   8.200  0.000E+00  0.000E+00  0.000E+00  0.000E+00
   8.300  0.000E+00  0.000E+00  0.000E+00  0.000E+00
   8.400  0.000E+00  0.000E+00  0.000E+00  0.000E+00
   8.500  0.000E+00  0.000E+00  0.000E+00  0.000E+00
   8.600  0.000E+00  0.000E+00  0.000E+00  0.000E+00
   8.700  0.000E+00  0.000E+00  0.000E+00  0.000E+00
   8.800  0.000E+00  0.000E+00  0.000E+00  0.000E+00
   8.900  0.000E+00  0.000E+00  0.000E+00  0.000E+00
   9.000  0.000E+00  0.000E+00  0.000E+00  0.000E+00
   9.100  0.000E+00  0.000E+00  0.000E+00  0.000E+00
   9.200  0.000E+00  0.000E+00  0.000E+00  0.000E+00
   9.300  0.000E+00  0.000E+00  0.000E+00  0.000E+00
   9.400  0.000E+00  0.000E+00  0.000E+00  0.000E+00
   9.500  0.000E+00  0.000E+00  0.000E+00  0.000E+00
   9.600  0.000E+00  0.000E+00  0.000E+00  0.000E+00
   9.700  0.105E-01  0.767E-02  0.105E-01  0.767E-02
   9.800  0.146E-01  0.123E-01  0.146E-01  0.123E-01
   9.900  0.181E-01  0.158E-01  0.181E-01  0.158E-01
  10.000  0.233E-01  0.202E-01  0.233E-01  0.202E-01
  10.100  0.266E-01  0.245E-01  0.266E-01  0.245E-01
  10.200  0.264E-01  0.269E-01  0.264E-01  0.269E-01
  10.300  0.290E-01  0.267E-01  0.290E-01  0.267E-01
  10.400  0.318E-01  0.292E-01  0.318E-01  0.292E-01
  10.500  0.348E-01  0.319E-01  0.348E-01  0.319E-01
  10.600  0.379E-01  0.347E-01  0.379E-01  0.347E-01
  10.700  0.402E-01  0.376E-01  0.402E-01  0.376E-01
  10.800  0.430E-01  0.395E-01  0.430E-01  0.395E-01
  10.900  0.453E-01  0.418E-01  0.453E-01  0.418E-01
  11.000  0.467E-01  0.436E-01  0.467E-01  0.436E-01
  11.100  0.485E-01  0.447E-01  0.485E-01  0.447E-01
  11.200  0.509E-01  0.461E-01  0.509E-01  0.461E-01
  11.300  0.538E-01  0.481E-01  0.538E-01  0.481E-01
  11.400  0.568E-01  0.505E-01  0.568E-01  0.505E-01
  11.500  0.600E-01  0.530E-01  0.600E-01  0.530E-01
  11.600  0.633E-01  0.556E-01  0.633E-01  0.556E-01
  11.700  0.655E-01  0.583E-01  0.655E-01  0.583E-01
  11.800  0.681E-01  0.598E-01  0.681E-01  0.598E-01
  11.900  0.720E-01  0.613E-01  0.720E-01  0.613E-01
  12.000  0.757E-01  0.632E-01  0.757E-01  0.632E-01
  12.100  0.788E-01  0.654E-01  0.788E-01  0.654E-01
  12.200  0.821E-01  0.675E-01  0.821E-01  0.675E-01
  12.300  0.858E-01  0.694E-01  0.858E-01  0.694E-01
  12.400  0.903E-01  0.714E-01  0.903E-01  0.714E-01
  12.500  0.952E-01  0.735E-01  0.952E-01  0.735E-01
  12.600  0.101E+00  0.757E-01  0.101E+00  0.757E-01
  12.700  0.107E+00  0.783E-01  0.107E+00  0.783E-01
  12.800  0.125E+00  0.809E-01  0.125E+00  0.809E-01
  12.900  0.146E+00  0.836E-01  0.146E+00  0.836E-01
  13.000  0.162E+00  0.861E-01  0.162E+00  0.861E-01
  13.100  0.157E+00  0.886E-01  0.157E+00  0.886E-01
  13.200  0.148E+00  0.910E-01  0.148E+00  0.910E-01
  13.300  0.149E+00  0.932E-01  0.149E+00  0.932E-01
  13.400  0.146E+00  0.965E-01  0.146E+00  0.965E-01
  13.500  0.141E+00  0.998E-01  0.141E+00  0.998E-01
  13.600  0.172E+00  0.102E+00  0.172E+00  0.102E+00
  13.700  0.100E+00  0.105E+00  0.100E+00  0.105E+00
  13.800  0.634E-01  0.108E+00  0.634E-01  0.108E+00
  13.900  0.398E-01  0.112E+00  0.398E-01  0.112E+00
  14.000  0.296E-01  0.115E+00  0.296E-01  0.115E+00
  14.100  0.103E-01  0.119E+00  0.103E-01  0.119E+00
  14.200  0.582E-02  0.125E+00  0.582E-02  0.125E+00
  14.300  0.462E-02  0.142E+00  0.462E-02  0.142E+00
  14.400  0.766E-02  0.148E+00  0.766E-02  0.148E+00
  14.500  0.866E-02  0.142E+00  0.866E-02  0.142E+00
  14.600  0.100E-01  0.133E+00  0.100E-01  0.133E+00
  14.700  0.246E-01  0.127E+00  0.246E-01  0.127E+00
  14.800  0.250E-01  0.122E+00  0.250E-01  0.122E+00
  14.900  0.348E-01  0.117E+00  0.348E-01  0.117E+00
  15.000  0.471E-01  0.110E+00  0.471E-01  0.110E+00
  15.100  0.724E-01  0.102E+00  0.724E-01  0.102E+00
  15.200  0.997E-01  0.105E+00  0.997E-01  0.105E+00
  15.300  0.744E-01  0.956E-01  0.744E-01  0.956E-01
  15.400  0.481E-01  0.787E-01  0.481E-01  0.787E-01
  15.500  0.367E-01  0.534E-01  0.367E-01  0.534E-01
  15.600  0.286E-01  0.415E-01  0.286E-01  0.415E-01
  15.700  0.235E-01  0.238E-01  0.235E-01  0.238E-01
  15.800  0.196E-01  0.836E-02  0.196E-01  0.836E-02
  15.900  0.164E-01  0.428E-02  0.164E-01  0.428E-02
  16.000  0.144E-01  0.710E-03  0.144E-01  0.710E-03
  16.100  0.125E-01  0.129E-02  0.125E-01  0.129E-02
  16.200  0.108E-01  0.269E-02  0.108E-01  0.269E-02
  16.300  0.122E-01  0.667E-02  0.122E-01  0.667E-02
  16.400  0.128E-01  0.122E-01  0.128E-01  0.122E-01
  16.500  0.862E-02  0.198E-01  0.862E-02  0.198E-01
  16.600  0.854E-02  0.259E-01  0.854E-02  0.259E-01
  16.700  0.202E-01  0.281E-01  0.202E-01  0.281E-01
  16.800  0.358E-01  0.320E-01  0.358E-01  0.320E-01
  16.900  0.367E-01  0.399E-01  0.367E-01  0.399E-01
  17.000  0.390E-01  0.565E-01  0.390E-01  0.565E-01
  17.100  0.372E-01  0.781E-01  0.372E-01  0.781E-01
  17.200  0.354E-01  0.677E-01  0.354E-01  0.677E-01
  17.300  0.338E-01  0.387E-01  0.338E-01  0.387E-01
  17.400  0.341E-01  0.266E-01  0.341E-01  0.266E-01
  17.500  0.348E-01  0.166E-01  0.348E-01  0.166E-01
  17.600  0.345E-01  0.116E-01  0.345E-01  0.116E-01
  17.700  0.330E-01  0.805E-02  0.330E-01  0.805E-02
  17.800  0.355E-01  0.535E-02  0.355E-01  0.535E-02
  17.900  0.377E-01  0.348E-02  0.377E-01  0.348E-02
  18.000  0.401E-01  0.106E-02  0.401E-01  0.106E-02
  18.100  0.421E-01  0.109E-02  0.421E-01  0.109E-02
  18.200  0.438E-01  0.124E-02  0.438E-01  0.124E-02
  18.300  0.484E-01  0.133E-02  0.484E-01  0.133E-02
  18.400  0.508E-01  0.146E-02  0.508E-01  0.146E-02
  18.500  0.529E-01  0.148E-02  0.529E-01  0.148E-02
  18.600  0.544E-01  0.186E-02  0.544E-01  0.186E-02
  18.700  0.554E-01  0.367E-02  0.554E-01  0.367E-02
  18.800  0.553E-01  0.602E-02  0.553E-01  0.602E-02
  18.900  0.542E-01  0.610E-02  0.542E-01  0.610E-02
  19.000  0.541E-01  0.554E-02  0.541E-01  0.554E-02
  19.100  0.537E-01  0.597E-02  0.537E-01  0.597E-02
  19.200  0.534E-01  0.484E-02  0.534E-01  0.484E-02
  19.300  0.535E-01  0.353E-02  0.535E-01  0.353E-02
  19.400  0.534E-01  0.296E-02  0.534E-01  0.296E-02
  19.500  0.532E-01  0.255E-02  0.532E-01  0.255E-02
  19.600  0.528E-01  0.168E-02  0.528E-01  0.168E-02
  19.700  0.534E-01  0.357E-02  0.534E-01  0.357E-02
  19.800  0.519E-01  0.135E-01  0.519E-01  0.135E-01
  19.900  0.517E-01  0.311E-01  0.517E-01  0.311E-01
  20.000  0.517E-01  0.307E-01  0.517E-01  0.307E-01
  20.100  0.517E-01  0.301E-01  0.517E-01  0.301E-01
  20.200  0.513E-01  0.274E-01  0.513E-01  0.274E-01
  20.300  0.505E-01  0.312E-01  0.505E-01  0.312E-01
  20.400  0.498E-01  0.356E-01  0.498E-01  0.356E-01
  20.500  0.484E-01  0.364E-01  0.484E-01  0.364E-01
  20.600  0.468E-01  0.377E-01  0.468E-01  0.377E-01
  20.700  0.454E-01  0.407E-01  0.454E-01  0.407E-01
  20.800  0.439E-01  0.429E-01  0.439E-01  0.429E-01
  20.900  0.424E-01  0.445E-01  0.424E-01  0.445E-01
  21.000  0.411E-01  0.451E-01  0.411E-01  0.451E-01
  21.100  0.398E-01  0.449E-01  0.398E-01  0.449E-01
  21.200  0.393E-01  0.446E-01  0.393E-01  0.446E-01
  21.300  0.373E-01  0.445E-01  0.373E-01  0.445E-01
  21.400  0.361E-01  0.444E-01  0.361E-01  0.444E-01
  21.500  0.349E-01  0.441E-01  0.349E-01  0.441E-01
  21.600  0.336E-01  0.439E-01  0.336E-01  0.439E-01
  21.700  0.324E-01  0.441E-01  0.324E-01  0.441E-01
  21.800  0.311E-01  0.442E-01  0.311E-01  0.442E-01
  21.900  0.299E-01  0.441E-01  0.299E-01  0.441E-01
  22.000  0.286E-01  0.439E-01  0.286E-01  0.439E-01
  22.100  0.279E-01  0.429E-01  0.279E-01  0.429E-01
  22.200  0.267E-01  0.418E-01  0.267E-01  0.418E-01
  22.300  0.256E-01  0.400E-01  0.256E-01  0.400E-01
  22.400  0.248E-01  0.383E-01  0.248E-01  0.383E-01
  22.500  0.237E-01  0.381E-01  0.237E-01  0.381E-01
  22.600  0.222E-01  0.356E-01  0.222E-01  0.356E-01
  22.700  0.208E-01  0.345E-01  0.208E-01  0.345E-01
  22.800  0.205E-01  0.333E-01  0.205E-01  0.333E-01
  22.900  0.191E-01  0.321E-01  0.191E-01  0.321E-01
  23.000  0.160E-01  0.310E-01  0.160E-01  0.310E-01
  23.100  0.149E-01  0.298E-01  0.149E-01  0.298E-01
  23.200  0.140E-01  0.287E-01  0.140E-01  0.287E-01
  23.300  0.130E-01  0.275E-01  0.130E-01  0.275E-01
  23.400  0.121E-01  0.262E-01  0.121E-01  0.262E-01
  23.500  0.112E-01  0.255E-01  0.112E-01  0.255E-01
  23.600  0.102E-01  0.242E-01  0.102E-01  0.242E-01
  23.700  0.917E-02  0.231E-01  0.917E-02  0.231E-01
  23.800  0.825E-02  0.248E-01  0.825E-02  0.248E-01
  23.900  0.742E-02  0.220E-01  0.742E-02  0.220E-01
  24.000  0.667E-02  0.195E-01  0.667E-02  0.195E-01
  24.100  0.598E-02  0.181E-01  0.598E-02  0.181E-01
  24.200  0.536E-02  0.174E-01  0.536E-02  0.174E-01
  24.300  0.480E-02  0.143E-01  0.480E-02  0.143E-01
  24.400  0.429E-02  0.133E-01  0.429E-02  0.133E-01
  24.500  0.385E-02  0.122E-01  0.385E-02  0.122E-01
  24.600  0.588E-02  0.112E-01  0.588E-02  0.112E-01
  24.700  0.472E-02  0.102E-01  0.472E-02  0.102E-01
  24.800  0.179E-01  0.907E-02  0.179E-01  0.907E-02
  24.900  0.407E-01  0.804E-02  0.407E-01  0.804E-02
  25.000  0.732E-01  0.711E-02  0.732E-01  0.711E-02
  25.100  0.104E+00  0.626E-02  0.104E+00  0.626E-02
